# An Atlas of Galaxy Spectral Energy Distributions from the Ultraviolet to the Mid-Infrared
# Brown et al. (2014)
# http://dx.doi.org/10.5072/03/529D3551F0117
# 
# Column 1 : Restframe Wavelength (Angstrom)
# Column 2 : Flux per unit wavelength (ergs/s/cm^2/Angstrom)
# Column 3 : Observed wavelength (Angstrom)
# Column 4 : Source (0 = model, 1 = Optical Spectrum, 2 = Akari, 3 = Spitzer IRS)
# 
   100.10 7.8333e-22    101.86 0 
   101.96 1.0863e-21    103.75 0 
   104.10 1.3770e-21    105.93 0 
   106.03 1.7863e-21    107.89 0 
   108.00 2.3548e-21    109.90 0 
   110.01 3.5888e-21    111.94 0 
   113.88 5.5583e-21    115.88 0 
   117.88 8.0899e-21    119.95 0 
   120.90 2.9305e-20    123.03 0 
   124.86 4.0174e-20    127.06 0 
   126.89 4.5914e-20    129.12 0 
   128.07 4.9653e-20    130.32 0 
   131.05 5.9422e-20    133.35 0 
   131.96 7.0623e-20    134.28 0 
   134.10 7.8876e-20    136.46 0 
   136.91 1.0494e-19    139.32 0 
   140.10 1.2301e-19    142.56 0 
   143.03 3.1619e-19    145.55 0 
   147.04 7.6727e-19    149.62 0 
   151.16 8.9938e-19    153.82 0 
   155.04 1.0616e-18    157.76 0 
   159.02 1.2472e-18    161.81 0 
   161.97 1.3994e-18    164.82 0 
   166.13 1.6442e-18    169.04 0 
   170.00 1.8878e-18    172.98 0 
   173.16 2.0987e-18    176.20 0 
   177.19 2.3875e-18    180.30 0 
   180.07 2.6239e-18    183.23 0 
   182.15 2.7986e-18    185.35 0 
   185.97 3.1546e-18    189.23 0 
   191.18 3.6387e-18    194.54 0 
   193.84 3.9806e-18    197.24 0 
   197.90 4.4152e-18    201.37 0 
   202.04 4.9198e-18    205.59 0 
   204.85 5.3082e-18    208.45 0 
   210.11 5.7404e-18    213.80 0 
   215.99 6.8698e-18    219.79 0 
   220.01 7.5500e-18    223.87 0 
   223.07 7.9606e-18    226.99 0 
   227.22 8.7286e-18    231.21 0 
   229.85 1.3676e-17    233.88 0 
   234.12 2.3930e-17    238.23 0 
   240.13 3.1113e-17    244.34 0 
   245.72 3.1401e-17    250.03 0 
   252.02 3.4910e-17    256.45 0 
   256.71 3.0757e-17    261.22 0 
   260.28 3.6220e-17    264.85 0 
   263.90 3.9169e-17    268.53 0 
   268.81 4.0639e-17    273.53 0 
   273.80 4.1971e-17    278.61 0 
   278.89 4.3346e-17    283.79 0 
   284.08 4.4766e-17    289.07 0 
   290.03 4.4355e-17    295.12 0 
   296.10 4.6875e-17    301.30 0 
   300.91 4.7418e-17    306.20 0 
   307.92 4.9882e-17    313.33 0 
   318.01 5.3450e-17    323.59 0 
   327.67 5.5840e-17    333.43 0 
   337.63 5.7802e-17    343.56 0 
   347.89 5.9559e-17    354.00 0 
   356.81 6.1652e-17    363.08 0 
   365.97 6.4706e-17    372.39 0 
   375.35 6.6672e-17    381.94 0 
   384.98 6.6213e-17    391.74 0 
   394.86 7.2434e-17    401.79 0 
   404.99 7.7615e-17    412.10 0 
   414.42 8.0899e-17    421.70 0 
   422.12 8.2784e-17    429.54 0 
   429.97 8.5299e-17    437.52 0 
   441.00 9.4394e-17    448.75 0 
   451.27 1.0091e-16    459.20 0 
   459.66 1.0326e-16    467.74 0 
   470.37 1.1116e-16    478.63 0 
   480.22 1.2530e-16    488.65 0 
   490.28 1.2617e-16    498.88 0 
   500.54 1.5099e-16    509.33 0 
   506.34 1.4926e-16    515.23 0 
   512.20 2.1035e-16    521.19 0 
   520.52 2.2077e-16    529.66 0 
   530.20 2.3118e-16    539.51 0 
   540.06 2.2333e-16    549.54 0 
   550.10 2.4431e-16    559.76 0 
   560.33 3.2059e-16    570.16 0 
   569.43 3.8014e-16    579.43 0 
   580.02 4.0546e-16    590.20 0 
   589.44 4.5388e-16    599.79 0 
   600.40 4.3747e-16    610.94 0 
   610.16 4.5703e-16    620.87 0 
   620.07 6.0526e-16    630.96 0 
   630.14 6.2798e-16    641.21 0 
   640.38 7.2601e-16    651.63 0 
   649.29 7.6374e-16    660.69 0 
   658.33 7.6198e-16    669.88 0 
   664.42 8.7891e-16    676.08 0 
   675.21 9.7263e-16    687.07 0 
   684.61 9.2033e-16    696.63 0 
   695.73 1.1193e-15    707.95 0 
   705.41 1.0068e-15    717.79 0 
   715.22 1.3120e-15    727.78 0 
   725.17 1.4026e-15    737.90 0 
   735.26 1.4823e-15    748.17 0 
   745.49 1.5380e-15    758.58 0 
   755.86 1.6179e-15    769.13 0 
   764.61 1.5594e-15    778.04 0 
   775.25 1.8069e-15    788.86 0 
   784.22 1.7822e-15    797.99 0 
   795.13 1.9813e-15    809.10 0 
   804.34 2.1181e-15    818.46 0 
   815.53 2.2230e-15    829.85 0 
   824.97 2.3656e-15    839.46 0 
   834.53 2.0181e-15    849.18 0 
   844.19 2.5290e-15    859.01 0 
   855.93 2.5939e-15    870.96 0 
   865.85 2.7794e-15    881.05 0 
   875.87 2.9104e-15    891.25 0 
   886.01 3.0405e-15    901.57 0 
   894.21 3.1619e-15    909.91 0 
   904.57 3.2133e-15    920.45 0 
   915.04 3.4194e-15    931.11 0 
   925.64 1.0374e-14    941.89 0 
   934.20 1.9052e-14    950.60 0 
   945.02 3.1185e-14    961.61 0 
   955.96 4.0921e-14    972.75 0 
   964.81 4.6553e-14    981.75 0 
   975.98 1.2763e-14    993.12 0 
   985.01 4.0639e-14   1002.31 0 
   994.12 4.1586e-14   1011.58 0 
  1005.64 5.6747e-14   1023.29 0 
  1014.94 5.5840e-14   1032.76 0 
  1024.33 2.9441e-14   1042.32 0 
  1036.19 4.4050e-14   1054.39 0 
  1045.78 7.3442e-14   1064.14 0 
  1055.46 7.2268e-14   1073.99 0 
  1065.22 5.9696e-14   1083.93 0 
  1075.08 6.9174e-14   1093.96 0 
  1085.03 5.7669e-14   1104.08 0 
  1095.07 7.2769e-14   1114.29 0 
  1105.20 7.0460e-14   1124.61 0 
  1115.43 6.8857e-14   1135.01 0 
  1125.75 6.2222e-14   1145.51 0 
  1136.16 7.6374e-14   1156.11 0 
  1144.04 7.1112e-14   1164.13 0 
  1154.62 7.4293e-14   1174.90 0 
  1165.31 7.6023e-14   1185.77 0 
  1176.09 5.3944e-14   1196.74 0 
  1184.24 7.3951e-14   1205.04 0 
  1195.20 5.6357e-14   1216.19 0 
  1206.26 4.4766e-14   1227.44 0 
  1214.62 3.2133e-14   1235.95 0 
  1225.86 5.5456e-14   1247.38 0 
  1234.36 7.6374e-14   1256.03 0 
  1245.78 8.2404e-14   1267.65 0 
  1254.41 7.9973e-14   1276.44 0 
  1266.02 7.2268e-14   1288.25 0 
  1274.79 8.8094e-14   1297.18 0 
  1283.63 9.1400e-14   1306.17 0 
  1295.51 7.6198e-14   1318.26 0 
  1304.49 7.5848e-14   1327.39 0 
  1313.53 9.0771e-14   1336.60 0 
  1325.69 8.7487e-14   1348.96 0 
  1334.87 7.9973e-14   1358.31 0 
  1344.13 9.1400e-14   1367.73 0 
  1353.44 8.9114e-14   1377.21 0 
  1365.97 8.1648e-14   1389.95 0 
  1375.44 8.4323e-14   1399.59 0 
  1384.97 8.4907e-14   1409.29 0 
  1394.57 7.1605e-14   1419.06 0 
  1404.24 7.2937e-14   1428.89 0 
  1413.97 8.0158e-14   1438.80 0 
  1423.77 8.0899e-14   1448.77 0 
  1433.64 8.1648e-14   1458.81 0 
  1443.58 8.5103e-14   1468.93 0 
  1446.91 8.5891e-14   1472.31 0 
  1453.59 8.3742e-14   1479.11 0 
  1463.66 7.8695e-14   1489.36 0 
  1473.81 7.8876e-14   1499.69 0 
  1484.02 8.0158e-14   1510.08 0 
  1494.31 8.0899e-14   1520.55 0 
  1504.67 7.7258e-14   1531.09 0 
  1511.61 7.0460e-14   1538.15 0 
  1518.59 7.4293e-14   1545.25 0 
  1525.60 7.2769e-14   1552.39 0 
  1536.17 6.3965e-14   1563.15 0 
  1543.26 6.5758e-14   1570.36 0 
  1553.96 6.3379e-14   1581.25 0 
  1564.73 6.6672e-14   1592.21 0 
  1575.58 7.0949e-14   1603.25 0 
  1586.50 7.3611e-14   1614.36 0 
  1593.82 7.4980e-14   1621.81 0 
  1604.87 7.3273e-14   1633.05 0 
  1616.00 7.3105e-14   1644.37 0 
  1623.46 7.0623e-14   1651.96 0 
  1634.71 7.4464e-14   1663.41 0 
  1646.04 7.5153e-14   1674.94 0 
  1653.64 7.1276e-14   1682.67 0 
  1665.10 7.6198e-14   1694.34 0 
  1672.79 6.9174e-14   1702.16 0 
  1676.64 7.7437e-14   1706.08 0 
  1684.38 7.9240e-14   1713.96 0 
  1696.06 7.5326e-14   1725.84 0 
  1703.89 7.2937e-14   1733.80 0 
  1715.70 6.9654e-14   1745.82 0 
  1723.62 6.9015e-14   1753.88 0 
  1735.56 7.3105e-14   1766.04 0 
  1743.57 7.1605e-14   1774.19 0 
  1755.66 7.5153e-14   1786.49 0 
  1763.76 7.0460e-14   1794.73 0 
  1775.99 7.1112e-14   1807.17 0 
  1784.19 7.2434e-14   1815.52 0 
  1796.55 7.5674e-14   1828.10 0 
  1804.85 7.5500e-14   1836.54 0 
  1813.18 7.0460e-14   1845.02 0 
  1825.75 7.1770e-14   1857.80 0 
  1834.17 6.9654e-14   1866.38 0 
  1846.89 6.4855e-14   1879.32 0 
  1855.41 6.5155e-14   1887.99 0 
  1863.98 6.6826e-14   1896.71 0 
  1876.90 7.0623e-14   1909.85 0 
  1885.56 6.5758e-14   1918.67 0 
  1894.26 6.3379e-14   1927.53 0 
  1903.01 6.6826e-14   1936.42 0 
  1916.20 6.4557e-14   1949.84 0 
  1925.04 6.2943e-14   1958.84 0 
  1933.93 6.5005e-14   1967.89 0 
  1942.86 6.7444e-14   1976.97 0 
  1956.32 6.3088e-14   1990.67 0 
  1965.35 6.8068e-14   1999.86 0 
  1974.42 6.9815e-14   2009.09 0 
  1983.54 6.6519e-14   2018.37 0 
  1997.29 6.4855e-14   2032.36 0 
  2006.51 6.6519e-14   2041.74 0 
  2015.77 6.5005e-14   2051.16 0 
  2025.07 6.7289e-14   2060.63 0 
  2034.42 6.3965e-14   2070.14 0 
  2043.81 6.5758e-14   2079.70 0 
  2053.24 6.1087e-14   2089.30 0 
  2062.72 6.2509e-14   2098.94 0 
  2072.24 6.7444e-14   2108.63 0 
  2077.02 6.4409e-14   2113.49 0 
  2086.61 6.6519e-14   2123.24 0 
  2096.24 6.3379e-14   2133.04 0 
  2105.91 6.3965e-14   2142.89 0 
  2115.63 6.4557e-14   2152.78 0 
  2125.40 6.5155e-14   2162.72 0 
  2135.21 6.1936e-14   2172.70 0 
  2145.06 6.2509e-14   2182.73 0 
  2154.97 6.4409e-14   2192.81 0 
  2164.91 6.2654e-14   2202.93 0 
  2174.91 6.2366e-14   2213.09 0 
  2184.94 6.1368e-14   2223.31 0 
  2195.03 6.3525e-14   2233.57 0 
  2205.16 6.2222e-14   2243.88 0 
  2215.34 5.9696e-14   2254.24 0 
  2225.57 5.8472e-14   2264.64 0 
  2235.84 6.1087e-14   2275.10 0 
  2246.16 5.9149e-14   2285.60 0 
  2256.53 5.7141e-14   2296.15 0 
  2266.94 5.8040e-14   2306.75 0 
  2277.41 5.8936e-14   2317.39 0 
  2282.66 5.9869e-14   2322.74 0 
  2293.19 5.6605e-14   2333.46 0 
  2303.78 5.7082e-14   2344.23 0 
  2314.41 5.5099e-14   2355.05 0 
  2325.09 4.6322e-14   2365.92 0 
  2335.83 5.2051e-14   2376.84 0 
  2346.61 5.0824e-14   2387.81 0 
  2357.44 5.3421e-14   2398.83 0 
  2362.87 5.0295e-14   2404.36 0 
  2373.78 5.1070e-14   2415.46 0 
  2384.74 4.8061e-14   2426.61 0 
  2395.74 5.0283e-14   2437.81 0 
  2406.80 4.8759e-14   2449.06 0 
  2412.35 4.9416e-14   2454.71 0 
  2423.49 5.1463e-14   2466.04 0 
  2434.67 4.9787e-14   2477.42 0 
  2445.91 5.1611e-14   2488.86 0 
  2457.20 5.0975e-14   2500.35 0 
  2462.86 5.0486e-14   2506.11 0 
  2474.23 4.8953e-14   2517.68 0 
  2485.65 4.9249e-14   2529.30 0 
  2497.13 4.5083e-14   2540.97 0 
  2502.88 5.0561e-14   2546.83 0 
  2514.43 4.6071e-14   2558.59 0 
  2520.23 4.7231e-14   2564.48 0 
  2526.04 4.5923e-14   2570.40 0 
  2537.70 4.6413e-14   2582.26 0 
  2543.55 4.5650e-14   2588.21 0 
  2555.29 4.8088e-14   2600.16 0 
  2567.09 4.6950e-14   2612.16 0 
  2573.00 4.8690e-14   2618.18 0 
  2584.88 4.8088e-14   2630.27 0 
  2596.81 4.7383e-14   2642.41 0 
  2602.80 4.6070e-14   2648.50 0 
  2614.81 4.5395e-14   2660.72 0 
  2626.88 4.6838e-14   2673.01 0 
  2632.94 4.8127e-14   2679.17 0 
  2645.09 5.1048e-14   2691.54 0 
  2657.30 5.2067e-14   2703.96 0 
  2663.43 4.7902e-14   2710.19 0 
  2675.72 4.9309e-14   2722.70 0 
  2688.07 4.9489e-14   2735.27 0 
  2694.27 4.7129e-14   2741.57 0 
  2706.70 4.8180e-14   2754.23 0 
  2712.94 4.5989e-14   2760.58 0 
  2725.46 4.5522e-14   2773.32 0 
  2738.04 4.7075e-14   2786.12 0 
  2744.36 4.2322e-14   2792.54 0 
  2757.02 4.3066e-14   2805.43 0 
  2763.38 4.4352e-14   2811.90 0 
  2776.13 4.5653e-14   2824.88 0 
  2782.53 4.3376e-14   2831.39 0 
  2795.38 3.7051e-14   2844.46 0 
  2801.82 3.8867e-14   2851.02 0 
  2814.75 4.4682e-14   2864.18 0 
  2827.75 4.6418e-14   2877.40 0 
  2834.26 4.4818e-14   2884.03 0 
  2847.35 4.3551e-14   2897.34 0 
  2853.91 4.1761e-14   2904.02 0 
  2867.08 4.5323e-14   2917.43 0 
  2873.69 4.5718e-14   2924.15 0 
  2886.96 4.5250e-14   2937.65 0 
  2893.61 4.5435e-14   2944.42 0 
  2906.97 4.8520e-14   2958.01 0 
  2927.12 4.6582e-14   2978.52 0 
  2947.41 4.5552e-14   2999.16 0 
  2967.84 4.5898e-14   3019.95 0 
  2988.41 4.5716e-14   3040.89 0 
  3009.13 4.5745e-14   3061.96 0 
  3029.98 4.5667e-14   3083.19 0 
  3050.99 4.5589e-14   3104.56 0 
  3072.13 4.5616e-14   3126.08 0 
  3093.43 4.5432e-14   3147.75 0 
  3107.71 4.5694e-14   3162.28 0 
  3129.25 4.4678e-14   3184.20 0 
  3150.94 4.4496e-14   3206.27 0 
  3172.78 4.4724e-14   3228.49 0 
  3187.43 4.2464e-14   3243.40 0 
  3209.52 4.3574e-14   3265.88 0 
  3231.77 4.1441e-14   3288.52 0 
  3246.69 4.4248e-14   3303.70 0 
  3269.19 4.5613e-14   3326.60 0 
  3291.85 4.5109e-14   3349.66 0 
  3307.05 4.4434e-14   3365.12 0 
  3322.31 4.4480e-14   3380.65 0 
  3329.97 4.5487e-14   3388.44 0 
  3337.65 4.4526e-14   3396.25 0 
  3345.34 4.3887e-14   3404.08 0 
  3353.05 4.2762e-14   3411.93 0 
  3360.78 4.4134e-14   3419.79 0 
  3368.53 4.3903e-14   3427.68 0 
  3376.30 4.0291e-14   3435.58 0 
  3384.08 4.1489e-14   3443.50 0 
  3391.88 4.4325e-14   3451.44 0 
  3399.70 4.5432e-14   3459.39 0 
  3407.54 4.2764e-14   3467.37 0 
  3415.39 4.3131e-14   3475.36 0 
  3423.26 4.5762e-14   3483.37 0 
  3431.16 4.5312e-14   3491.40 0 
  3439.06 4.4867e-14   3499.45 0 
  3446.99 4.0517e-14   3507.52 0 
  3454.94 4.3486e-14   3515.60 0 
  3462.90 4.0463e-14   3523.71 0 
  3470.89 4.2244e-14   3531.83 0 
  3478.89 3.9398e-14   3539.97 0 
  3486.91 4.1227e-14   3548.13 0 
  3494.95 4.0727e-14   3556.31 0 
  3503.00 4.3111e-14   3564.51 0 
  3511.08 4.2295e-14   3572.73 0 
  3519.17 4.2364e-14   3580.96 0 
  3527.28 3.9783e-14   3589.22 0 
  3535.42 4.2599e-14   3597.49 0 
  3543.56 4.4576e-14   3605.79 0 
  3551.73 4.4340e-14   3614.10 0 
  3559.92 4.3201e-14   3622.43 0 
  3568.13 4.0382e-14   3630.78 0 
  3576.35 3.9254e-14   3639.15 0 
  3584.60 3.6947e-14   3647.54 0 
  3592.86 3.7869e-14   3655.95 0 
  3601.14 4.2951e-14   3664.37 0 
  3606.42 3.9515e-14   3669.75 1 
  3609.13 4.3830e-14   3672.50 1 
  3611.83 3.9278e-14   3675.25 1 
  3614.53 3.9738e-14   3678.00 1 
  3617.23 3.2097e-14   3680.75 1 
  3619.94 3.8302e-14   3683.50 1 
  3622.64 4.4704e-14   3686.25 1 
  3625.34 4.2834e-14   3689.00 1 
  3628.05 4.7114e-14   3691.75 1 
  3630.75 4.7185e-14   3694.50 1 
  3633.45 4.6743e-14   3697.25 1 
  3636.15 3.8172e-14   3700.00 1 
  3638.86 4.0942e-14   3702.75 1 
  3641.56 4.1322e-14   3705.50 1 
  3644.26 4.4171e-14   3708.25 1 
  3646.96 3.9917e-14   3711.00 1 
  3649.67 3.7729e-14   3713.75 1 
  3652.37 4.2968e-14   3716.50 1 
  3655.07 3.6340e-14   3719.25 1 
  3657.77 4.6493e-14   3722.00 1 
  3660.48 4.4471e-14   3724.75 1 
  3663.18 4.6370e-14   3727.50 1 
  3665.88 3.9619e-14   3730.25 1 
  3668.58 4.4737e-14   3733.00 1 
  3671.29 4.2456e-14   3735.75 1 
  3673.99 4.5040e-14   3738.50 1 
  3676.69 4.4132e-14   3741.25 1 
  3679.39 4.0075e-14   3744.00 1 
  3682.10 3.5167e-14   3746.75 1 
  3684.80 3.9250e-14   3749.50 1 
  3687.50 4.2273e-14   3752.25 1 
  3690.20 4.0192e-14   3755.00 1 
  3692.91 4.4236e-14   3757.75 1 
  3695.61 4.4254e-14   3760.50 1 
  3698.31 4.3365e-14   3763.25 1 
  3701.01 4.4968e-14   3766.00 1 
  3703.72 4.1919e-14   3768.75 1 
  3706.42 4.7141e-14   3771.50 1 
  3709.12 4.5058e-14   3774.25 1 
  3711.82 4.5163e-14   3777.00 1 
  3714.53 5.0661e-14   3779.75 1 
  3717.23 6.7790e-14   3782.50 1 
  3719.93 9.3363e-14   3785.25 1 
  3722.63 1.4010e-13   3788.00 1 
  3725.34 1.8394e-13   3790.75 1 
  3728.04 1.9589e-13   3793.50 1 
  3730.74 1.6414e-13   3796.25 1 
  3733.44 1.1231e-13   3799.00 1 
  3736.15 7.1600e-14   3801.75 1 
  3738.85 5.6489e-14   3804.50 1 
  3741.55 5.0928e-14   3807.25 1 
  3744.25 4.6408e-14   3810.00 1 
  3746.96 4.5547e-14   3812.75 1 
  3749.66 4.5050e-14   3815.50 1 
  3752.36 4.4431e-14   3818.25 1 
  3755.06 5.0095e-14   3821.00 1 
  3757.77 6.3889e-14   3823.75 1 
  3760.47 7.2418e-14   3826.50 1 
  3763.17 7.9089e-14   3829.25 1 
  3765.88 7.7346e-14   3832.00 1 
  3768.58 6.6716e-14   3834.75 1 
  3771.28 5.3088e-14   3837.50 1 
  3773.98 4.8667e-14   3840.25 1 
  3776.69 5.2352e-14   3843.00 1 
  3779.39 5.5926e-14   3845.75 1 
  3782.09 5.4523e-14   3848.50 1 
  3784.79 5.6533e-14   3851.25 1 
  3787.50 5.4353e-14   3854.00 1 
  3790.20 5.0795e-14   3856.75 1 
  3792.90 4.9523e-14   3859.50 1 
  3795.60 4.5894e-14   3862.25 1 
  3798.31 4.5310e-14   3865.00 1 
  3801.01 4.8938e-14   3867.75 1 
  3803.71 5.0200e-14   3870.50 1 
  3806.41 5.2565e-14   3873.25 1 
  3809.12 5.4819e-14   3876.00 1 
  3811.82 5.6842e-14   3878.75 1 
  3814.52 5.9102e-14   3881.50 1 
  3817.22 5.4679e-14   3884.25 1 
  3819.93 5.3991e-14   3887.00 1 
  3822.63 5.1399e-14   3889.75 1 
  3825.33 5.1665e-14   3892.50 1 
  3828.03 4.7263e-14   3895.25 1 
  3830.74 4.5627e-14   3898.00 1 
  3833.44 4.2285e-14   3900.75 1 
  3836.14 4.2750e-14   3903.50 1 
  3838.84 4.3651e-14   3906.25 1 
  3841.55 4.7133e-14   3909.00 1 
  3844.25 4.9691e-14   3911.75 1 
  3846.95 5.2917e-14   3914.50 1 
  3849.65 5.9039e-14   3917.25 1 
  3852.36 5.9294e-14   3920.00 1 
  3855.06 6.0085e-14   3922.75 1 
  3857.76 6.2886e-14   3925.50 1 
  3860.46 6.3510e-14   3928.25 1 
  3863.17 6.2669e-14   3931.00 1 
  3865.87 6.5971e-14   3933.75 1 
  3868.57 6.5945e-14   3936.50 1 
  3871.27 6.4538e-14   3939.25 1 
  3873.98 6.2382e-14   3942.00 1 
  3876.68 5.9862e-14   3944.75 1 
  3879.38 5.5429e-14   3947.50 1 
  3882.08 5.4176e-14   3950.25 1 
  3884.79 5.4546e-14   3953.00 1 
  3887.49 5.4447e-14   3955.75 1 
  3890.19 5.2085e-14   3958.50 1 
  3892.89 5.2918e-14   3961.25 1 
  3895.60 5.3394e-14   3964.00 1 
  3898.30 5.8121e-14   3966.75 1 
  3901.00 5.8061e-14   3969.50 1 
  3903.70 6.1153e-14   3972.25 1 
  3906.41 6.3668e-14   3975.00 1 
  3909.11 6.6429e-14   3977.75 1 
  3911.81 6.7225e-14   3980.50 1 
  3914.52 6.7298e-14   3983.25 1 
  3917.22 6.5438e-14   3986.00 1 
  3919.92 6.3540e-14   3988.75 1 
  3922.62 6.3446e-14   3991.50 1 
  3925.33 6.1980e-14   3994.25 1 
  3928.03 5.6877e-14   3997.00 1 
  3930.73 5.2896e-14   3999.75 1 
  3933.43 5.1042e-14   4002.50 1 
  3936.14 5.1937e-14   4005.25 1 
  3938.84 5.4634e-14   4008.00 1 
  3941.54 5.8747e-14   4010.75 1 
  3944.24 6.2853e-14   4013.50 1 
  3946.95 6.1719e-14   4016.25 1 
  3949.65 6.3072e-14   4019.00 1 
  3952.35 6.7002e-14   4021.75 1 
  3955.05 6.5968e-14   4024.50 1 
  3957.76 5.9995e-14   4027.25 1 
  3960.46 5.8569e-14   4030.00 1 
  3963.16 5.5529e-14   4032.75 1 
  3965.86 5.2249e-14   4035.50 1 
  3968.57 4.9443e-14   4038.25 1 
  3971.27 4.7760e-14   4041.00 1 
  3973.97 4.9364e-14   4043.75 1 
  3976.67 5.4148e-14   4046.50 1 
  3979.38 5.6796e-14   4049.25 1 
  3982.08 6.4686e-14   4052.00 1 
  3984.78 6.8393e-14   4054.75 1 
  3987.48 7.0876e-14   4057.50 1 
  3990.19 7.0871e-14   4060.25 1 
  3992.89 7.1718e-14   4063.00 1 
  3995.59 7.2612e-14   4065.75 1 
  3998.29 7.3336e-14   4068.50 1 
  4001.00 7.2735e-14   4071.25 1 
  4003.70 7.5354e-14   4074.00 1 
  4006.40 7.1956e-14   4076.75 1 
  4009.10 7.2329e-14   4079.50 1 
  4011.81 7.4118e-14   4082.25 1 
  4014.51 7.5076e-14   4085.00 1 
  4017.21 7.3986e-14   4087.75 1 
  4019.91 7.5090e-14   4090.50 1 
  4022.62 7.6200e-14   4093.25 1 
  4025.32 7.3124e-14   4096.00 1 
  4028.02 7.5792e-14   4098.75 1 
  4030.72 7.4150e-14   4101.50 1 
  4033.43 7.4632e-14   4104.25 1 
  4036.13 7.5818e-14   4107.00 1 
  4038.83 7.4473e-14   4109.75 1 
  4041.53 7.2484e-14   4112.50 1 
  4044.24 7.3470e-14   4115.25 1 
  4046.94 7.1917e-14   4118.00 1 
  4049.64 7.8577e-14   4120.75 1 
  4052.34 7.6690e-14   4123.50 1 
  4055.05 7.6686e-14   4126.25 1 
  4057.75 7.6954e-14   4129.00 1 
  4060.45 7.7982e-14   4131.75 1 
  4063.16 7.5753e-14   4134.50 1 
  4065.86 8.0570e-14   4137.25 1 
  4068.56 7.9573e-14   4140.00 1 
  4071.26 7.9400e-14   4142.75 1 
  4073.97 7.5690e-14   4145.50 1 
  4076.67 7.6476e-14   4148.25 1 
  4079.37 7.1808e-14   4151.00 1 
  4082.07 7.3708e-14   4153.75 1 
  4084.78 7.1827e-14   4156.50 1 
  4087.48 7.2638e-14   4159.25 1 
  4090.18 6.8473e-14   4162.00 1 
  4092.88 6.6975e-14   4164.75 1 
  4095.59 6.4409e-14   4167.50 1 
  4098.29 6.4504e-14   4170.25 1 
  4100.99 6.2306e-14   4173.00 1 
  4103.69 6.3284e-14   4175.75 1 
  4106.40 6.4578e-14   4178.50 1 
  4109.10 6.2217e-14   4181.25 1 
  4111.80 6.2859e-14   4184.00 1 
  4114.50 6.8883e-14   4186.75 1 
  4117.21 6.7634e-14   4189.50 1 
  4119.91 7.0759e-14   4192.25 1 
  4122.61 6.8962e-14   4195.00 1 
  4125.31 7.1787e-14   4197.75 1 
  4128.02 7.6338e-14   4200.50 1 
  4130.72 7.1584e-14   4203.25 1 
  4133.42 7.1481e-14   4206.00 1 
  4136.12 7.0336e-14   4208.75 1 
  4138.83 7.4442e-14   4211.50 1 
  4141.53 7.0722e-14   4214.25 1 
  4144.23 6.9048e-14   4217.00 1 
  4146.93 7.1322e-14   4219.75 1 
  4149.64 6.7636e-14   4222.50 1 
  4152.34 6.6827e-14   4225.25 1 
  4155.04 7.0363e-14   4228.00 1 
  4157.74 6.8332e-14   4230.75 1 
  4160.45 6.9037e-14   4233.50 1 
  4163.15 6.9229e-14   4236.25 1 
  4165.85 7.0724e-14   4239.00 1 
  4168.55 6.7048e-14   4241.75 1 
  4171.26 6.6876e-14   4244.50 1 
  4173.96 6.7093e-14   4247.25 1 
  4176.66 6.9871e-14   4250.00 1 
  4179.36 6.9012e-14   4252.75 1 
  4182.07 6.8349e-14   4255.50 1 
  4184.77 7.1011e-14   4258.25 1 
  4187.47 6.8735e-14   4261.00 1 
  4190.17 6.9397e-14   4263.75 1 
  4192.88 6.6186e-14   4266.50 1 
  4195.58 6.6515e-14   4269.25 1 
  4198.28 6.7175e-14   4272.00 1 
  4200.98 6.9768e-14   4274.75 1 
  4203.69 6.7988e-14   4277.50 1 
  4206.39 7.1472e-14   4280.25 1 
  4209.09 7.0506e-14   4283.00 1 
  4211.80 6.9910e-14   4285.75 1 
  4214.50 7.1709e-14   4288.50 1 
  4217.20 7.0996e-14   4291.25 1 
  4219.90 7.0297e-14   4294.00 1 
  4222.61 6.7765e-14   4296.75 1 
  4225.31 6.7365e-14   4299.50 1 
  4228.01 6.8775e-14   4302.25 1 
  4230.71 6.8548e-14   4305.00 1 
  4233.42 6.9728e-14   4307.75 1 
  4236.12 7.0799e-14   4310.50 1 
  4238.82 7.2400e-14   4313.25 1 
  4241.52 7.1317e-14   4316.00 1 
  4244.23 7.2434e-14   4318.75 1 
  4246.93 7.2671e-14   4321.50 1 
  4249.63 7.2311e-14   4324.25 1 
  4252.33 7.0045e-14   4327.00 1 
  4255.04 7.0332e-14   4329.75 1 
  4257.74 7.1346e-14   4332.50 1 
  4260.44 7.1394e-14   4335.25 1 
  4263.14 7.3005e-14   4338.00 1 
  4265.85 7.2392e-14   4340.75 1 
  4268.55 7.2293e-14   4343.50 1 
  4271.25 7.2666e-14   4346.25 1 
  4273.95 7.1085e-14   4349.00 1 
  4276.66 7.0776e-14   4351.75 1 
  4279.36 7.0512e-14   4354.50 1 
  4282.06 7.1101e-14   4357.25 1 
  4284.76 7.2919e-14   4360.00 1 
  4287.47 7.0467e-14   4362.75 1 
  4290.17 6.8901e-14   4365.50 1 
  4292.87 6.7244e-14   4368.25 1 
  4295.57 6.5473e-14   4371.00 1 
  4298.28 6.4264e-14   4373.75 1 
  4300.98 6.2130e-14   4376.50 1 
  4303.68 6.1852e-14   4379.25 1 
  4306.38 6.3453e-14   4382.00 1 
  4309.09 6.4939e-14   4384.75 1 
  4311.79 6.5835e-14   4387.50 1 
  4314.49 6.9284e-14   4390.25 1 
  4317.19 7.1189e-14   4393.00 1 
  4319.90 7.1107e-14   4395.75 1 
  4322.60 7.2330e-14   4398.50 1 
  4325.30 7.1224e-14   4401.25 1 
  4328.00 7.0839e-14   4404.00 1 
  4330.71 7.1643e-14   4406.75 1 
  4333.41 7.2991e-14   4409.50 1 
  4336.11 7.5713e-14   4412.25 1 
  4338.81 7.6426e-14   4415.00 1 
  4341.52 7.5982e-14   4417.75 1 
  4344.22 7.1977e-14   4420.50 1 
  4346.92 6.9570e-14   4423.25 1 
  4349.62 7.1084e-14   4426.00 1 
  4352.33 7.0605e-14   4428.75 1 
  4355.03 7.2039e-14   4431.50 1 
  4357.73 7.2965e-14   4434.25 1 
  4360.44 7.4138e-14   4437.00 1 
  4363.14 7.5175e-14   4439.75 1 
  4365.84 7.5179e-14   4442.50 1 
  4368.54 7.5699e-14   4445.25 1 
  4371.25 7.6218e-14   4448.00 1 
  4373.95 7.4210e-14   4450.75 1 
  4376.65 7.3150e-14   4453.50 1 
  4379.35 7.4369e-14   4456.25 1 
  4382.06 7.4602e-14   4459.00 1 
  4384.76 7.2625e-14   4461.75 1 
  4387.46 7.0789e-14   4464.50 1 
  4390.16 7.2158e-14   4467.25 1 
  4392.87 7.2161e-14   4470.00 1 
  4395.57 7.2804e-14   4472.75 1 
  4398.27 7.3935e-14   4475.50 1 
  4400.97 7.4452e-14   4478.25 1 
  4403.68 7.3485e-14   4481.00 1 
  4406.38 7.4483e-14   4483.75 1 
  4409.08 7.6128e-14   4486.50 1 
  4411.78 7.5720e-14   4489.25 1 
  4414.49 7.6974e-14   4492.00 1 
  4417.19 7.6574e-14   4494.75 1 
  4419.89 7.5992e-14   4497.50 1 
  4422.59 7.6668e-14   4500.25 1 
  4425.30 7.7304e-14   4503.00 1 
  4428.00 7.7315e-14   4505.75 1 
  4430.70 7.7079e-14   4508.50 1 
  4433.40 7.6450e-14   4511.25 1 
  4436.11 7.5436e-14   4514.00 1 
  4438.81 7.6356e-14   4516.75 1 
  4441.51 7.7037e-14   4519.50 1 
  4444.21 7.8308e-14   4522.25 1 
  4446.92 7.9674e-14   4525.00 1 
  4449.62 7.7860e-14   4527.75 1 
  4452.32 7.8485e-14   4530.50 1 
  4455.02 7.7555e-14   4533.25 1 
  4457.73 7.3655e-14   4536.00 1 
  4460.43 7.4524e-14   4538.75 1 
  4463.13 7.5973e-14   4541.50 1 
  4465.83 7.4673e-14   4544.25 1 
  4468.54 7.6204e-14   4547.00 1 
  4471.24 7.9878e-14   4549.75 1 
  4473.94 8.0915e-14   4552.50 1 
  4476.64 7.9891e-14   4555.25 1 
  4479.35 7.9086e-14   4558.00 1 
  4482.05 7.8847e-14   4560.75 1 
  4484.75 8.0343e-14   4563.50 1 
  4487.45 8.0577e-14   4566.25 1 
  4490.16 8.0768e-14   4569.00 1 
  4492.86 8.0967e-14   4571.75 1 
  4495.56 8.1138e-14   4574.50 1 
  4498.26 7.9635e-14   4577.25 1 
  4500.97 7.9148e-14   4580.00 1 
  4503.67 8.0303e-14   4582.75 1 
  4506.37 8.3186e-14   4585.50 1 
  4509.08 8.1777e-14   4588.25 1 
  4511.78 7.8891e-14   4591.00 1 
  4514.48 7.8926e-14   4593.75 1 
  4517.18 8.0979e-14   4596.50 1 
  4519.89 7.8700e-14   4599.25 1 
  4522.59 7.8725e-14   4602.00 1 
  4525.29 7.7229e-14   4604.75 1 
  4527.99 7.4631e-14   4607.50 1 
  4530.70 7.7831e-14   4610.25 1 
  4533.40 7.5161e-14   4613.00 1 
  4536.10 7.6900e-14   4615.75 1 
  4538.80 7.7561e-14   4618.50 1 
  4541.51 7.7686e-14   4621.25 1 
  4544.21 7.8983e-14   4624.00 1 
  4546.91 7.7558e-14   4626.75 1 
  4549.61 7.6320e-14   4629.50 1 
  4552.32 7.8719e-14   4632.25 1 
  4555.02 7.9700e-14   4635.00 1 
  4557.72 8.0474e-14   4637.75 1 
  4560.42 8.1897e-14   4640.50 1 
  4563.13 8.0523e-14   4643.25 1 
  4565.83 8.2118e-14   4646.00 1 
  4568.53 8.2810e-14   4648.75 1 
  4571.23 8.3491e-14   4651.50 1 
  4573.94 8.2711e-14   4654.25 1 
  4576.64 8.1219e-14   4657.00 1 
  4579.34 8.0862e-14   4659.75 1 
  4582.04 7.8293e-14   4662.50 1 
  4584.75 7.9253e-14   4665.25 1 
  4587.45 7.8966e-14   4668.00 1 
  4590.15 7.8956e-14   4670.75 1 
  4592.85 7.8984e-14   4673.50 1 
  4595.56 7.9618e-14   4676.25 1 
  4598.26 8.1235e-14   4679.00 1 
  4600.96 8.0834e-14   4681.75 1 
  4603.66 8.1399e-14   4684.50 1 
  4606.37 8.0250e-14   4687.25 1 
  4609.07 8.2385e-14   4690.00 1 
  4611.77 8.2059e-14   4692.75 1 
  4614.47 8.1560e-14   4695.50 1 
  4617.18 8.2840e-14   4698.25 1 
  4619.88 8.2383e-14   4701.00 1 
  4622.58 8.2082e-14   4703.75 1 
  4625.28 8.0925e-14   4706.50 1 
  4627.99 8.3074e-14   4709.25 1 
  4630.69 8.1990e-14   4712.00 1 
  4633.39 8.1635e-14   4714.75 1 
  4636.09 8.0157e-14   4717.50 1 
  4638.80 7.9658e-14   4720.25 1 
  4641.50 7.7916e-14   4723.00 1 
  4644.20 7.9989e-14   4725.75 1 
  4646.90 8.2382e-14   4728.50 1 
  4649.61 7.9864e-14   4731.25 1 
  4652.31 7.8958e-14   4734.00 1 
  4655.01 8.1571e-14   4736.75 1 
  4657.72 8.1553e-14   4739.50 1 
  4660.42 8.2084e-14   4742.25 1 
  4663.12 7.8297e-14   4745.00 1 
  4665.82 7.7966e-14   4747.75 1 
  4668.53 7.6770e-14   4750.50 1 
  4671.23 7.8191e-14   4753.25 1 
  4673.93 7.7914e-14   4756.00 1 
  4676.63 7.9118e-14   4758.75 1 
  4679.34 8.0411e-14   4761.50 1 
  4682.04 8.1227e-14   4764.25 1 
  4684.74 8.1725e-14   4767.00 1 
  4687.44 8.3074e-14   4769.75 1 
  4690.15 7.8896e-14   4772.50 1 
  4692.85 7.9104e-14   4775.25 1 
  4695.55 7.9983e-14   4778.00 1 
  4698.25 7.9115e-14   4780.75 1 
  4700.96 7.6970e-14   4783.50 1 
  4703.66 7.6502e-14   4786.25 1 
  4706.36 7.6808e-14   4789.00 1 
  4709.06 8.1063e-14   4791.75 1 
  4711.77 7.7263e-14   4794.50 1 
  4714.47 7.9902e-14   4797.25 1 
  4717.17 7.9120e-14   4800.00 1 
  4719.87 7.8662e-14   4802.75 1 
  4722.58 8.1976e-14   4805.50 1 
  4725.28 7.9971e-14   4808.25 1 
  4727.98 7.8635e-14   4811.00 1 
  4730.68 7.9994e-14   4813.75 1 
  4733.39 7.8639e-14   4816.50 1 
  4736.09 7.8876e-14   4819.25 1 
  4738.79 7.9207e-14   4822.00 1 
  4741.49 7.9782e-14   4824.75 1 
  4744.20 8.0770e-14   4827.50 1 
  4746.90 8.1606e-14   4830.25 1 
  4749.60 8.1720e-14   4833.00 1 
  4752.30 8.2987e-14   4835.75 1 
  4755.01 7.9464e-14   4838.50 1 
  4757.71 7.8280e-14   4841.25 1 
  4760.41 8.0338e-14   4844.00 1 
  4763.11 7.7251e-14   4846.75 1 
  4765.82 7.7616e-14   4849.50 1 
  4768.52 7.9980e-14   4852.25 1 
  4771.22 7.8863e-14   4855.00 1 
  4773.92 7.8630e-14   4857.75 1 
  4776.63 8.0334e-14   4860.50 1 
  4779.33 7.8289e-14   4863.25 1 
  4782.03 8.0869e-14   4866.00 1 
  4784.73 7.6716e-14   4868.75 1 
  4787.44 7.7695e-14   4871.50 1 
  4790.14 7.9519e-14   4874.25 1 
  4792.84 7.9814e-14   4877.00 1 
  4795.55 8.0440e-14   4879.75 1 
  4798.25 8.0553e-14   4882.50 1 
  4800.95 7.9107e-14   4885.25 1 
  4803.65 8.0245e-14   4888.00 1 
  4806.36 8.0699e-14   4890.75 1 
  4809.06 8.1394e-14   4893.50 1 
  4811.76 7.8884e-14   4896.25 1 
  4814.46 8.1031e-14   4899.00 1 
  4817.17 7.8020e-14   4901.75 1 
  4819.87 7.9926e-14   4904.50 1 
  4822.57 7.8768e-14   4907.25 1 
  4825.27 8.0915e-14   4910.00 1 
  4827.98 8.0282e-14   4912.75 1 
  4830.68 7.9057e-14   4915.50 1 
  4833.38 7.9725e-14   4918.25 1 
  4836.08 7.9260e-14   4921.00 1 
  4838.79 7.8150e-14   4923.75 1 
  4841.49 7.9160e-14   4926.50 1 
  4844.19 7.8993e-14   4929.25 1 
  4846.89 7.9043e-14   4932.00 1 
  4849.60 7.6715e-14   4934.75 1 
  4852.30 8.2263e-14   4937.50 1 
  4855.00 8.8962e-14   4940.25 1 
  4857.70 1.0011e-13   4943.00 1 
  4860.41 1.0398e-13   4945.75 1 
  4863.11 9.9738e-14   4948.50 1 
  4865.81 8.9857e-14   4951.25 1 
  4868.51 8.0725e-14   4954.00 1 
  4871.22 7.4176e-14   4956.75 1 
  4873.92 7.3581e-14   4959.50 1 
  4876.62 7.6403e-14   4962.25 1 
  4879.32 7.5993e-14   4965.00 1 
  4882.03 7.5224e-14   4967.75 1 
  4884.73 7.7338e-14   4970.50 1 
  4887.43 7.4797e-14   4973.25 1 
  4890.13 7.6619e-14   4976.00 1 
  4892.84 7.7958e-14   4978.75 1 
  4895.54 7.8801e-14   4981.50 1 
  4898.24 7.9820e-14   4984.25 1 
  4900.94 7.9324e-14   4987.00 1 
  4903.65 8.2796e-14   4989.75 1 
  4906.35 8.5290e-14   4992.50 1 
  4909.05 8.9569e-14   4995.25 1 
  4911.75 8.6544e-14   4998.00 1 
  4914.46 8.0501e-14   5000.75 1 
  4917.16 7.6995e-14   5003.50 1 
  4919.86 7.4971e-14   5006.25 1 
  4922.56 7.6861e-14   5009.00 1 
  4925.27 7.7711e-14   5011.75 1 
  4927.97 7.8235e-14   5014.50 1 
  4930.67 7.9210e-14   5017.25 1 
  4933.37 7.9999e-14   5020.00 1 
  4936.08 7.9968e-14   5022.75 1 
  4938.78 8.1358e-14   5025.50 1 
  4941.48 8.1142e-14   5028.25 1 
  4944.19 8.4710e-14   5031.00 1 
  4946.89 8.6306e-14   5033.75 1 
  4949.59 8.8686e-14   5036.50 1 
  4952.29 9.0264e-14   5039.25 1 
  4955.00 9.2124e-14   5042.00 1 
  4957.70 9.3136e-14   5044.75 1 
  4960.40 9.0686e-14   5047.50 1 
  4963.10 8.8899e-14   5050.25 1 
  4965.81 8.6484e-14   5053.00 1 
  4968.51 8.1686e-14   5055.75 1 
  4971.21 7.9977e-14   5058.50 1 
  4973.91 8.1408e-14   5061.25 1 
  4976.62 8.0960e-14   5064.00 1 
  4979.32 8.0658e-14   5066.75 1 
  4982.02 8.4471e-14   5069.50 1 
  4984.72 8.7155e-14   5072.25 1 
  4987.43 8.8634e-14   5075.00 1 
  4990.13 9.1323e-14   5077.75 1 
  4992.83 9.6779e-14   5080.50 1 
  4995.53 1.0071e-13   5083.25 1 
  4998.24 1.0517e-13   5086.00 1 
  5000.94 1.1698e-13   5088.75 1 
  5003.64 1.2745e-13   5091.50 1 
  5006.34 1.3075e-13   5094.25 1 
  5009.05 1.2389e-13   5097.00 1 
  5011.75 1.0867e-13   5099.75 1 
  5014.45 9.4373e-14   5102.50 1 
  5017.15 8.5243e-14   5105.25 1 
  5019.86 7.9235e-14   5108.00 1 
  5022.56 7.8392e-14   5110.75 1 
  5025.26 7.4620e-14   5113.50 1 
  5027.96 7.6538e-14   5116.25 1 
  5030.67 7.6763e-14   5119.00 1 
  5033.37 7.7167e-14   5121.75 1 
  5036.07 7.5343e-14   5124.50 1 
  5038.77 7.4719e-14   5127.25 1 
  5041.48 7.3625e-14   5130.00 1 
  5044.18 7.2977e-14   5132.75 1 
  5046.88 7.5597e-14   5135.50 1 
  5049.58 8.0212e-14   5138.25 1 
  5052.29 8.7787e-14   5141.00 1 
  5054.99 9.8320e-14   5143.75 1 
  5057.69 9.6123e-14   5146.50 1 
  5060.39 8.6117e-14   5149.25 1 
  5063.10 7.8635e-14   5152.00 1 
  5065.80 7.6150e-14   5154.75 1 
  5068.50 7.3981e-14   5157.50 1 
  5071.20 7.3454e-14   5160.25 1 
  5073.91 7.1766e-14   5163.00 1 
  5076.61 7.1795e-14   5165.75 1 
  5079.31 7.2894e-14   5168.50 1 
  5082.01 7.0213e-14   5171.25 1 
  5084.72 7.0273e-14   5174.00 1 
  5087.42 7.2632e-14   5176.75 1 
  5090.12 7.1644e-14   5179.50 1 
  5092.83 7.2961e-14   5182.25 1 
  5095.53 7.2212e-14   5185.00 1 
  5098.23 7.1065e-14   5187.75 1 
  5100.93 7.0578e-14   5190.50 1 
  5103.64 7.0705e-14   5193.25 1 
  5106.34 7.0513e-14   5196.00 1 
  5109.04 7.1306e-14   5198.75 1 
  5111.74 7.2507e-14   5201.50 1 
  5114.45 7.3387e-14   5204.25 1 
  5117.15 7.2918e-14   5207.00 1 
  5119.85 7.1574e-14   5209.75 1 
  5122.55 7.1395e-14   5212.50 1 
  5125.26 7.0268e-14   5215.25 1 
  5127.96 6.9811e-14   5218.00 1 
  5130.66 6.9023e-14   5220.75 1 
  5133.36 7.0849e-14   5223.50 1 
  5136.07 7.1548e-14   5226.25 1 
  5138.77 6.9604e-14   5229.00 1 
  5141.47 6.9059e-14   5231.75 1 
  5144.17 7.0040e-14   5234.50 1 
  5146.88 7.0378e-14   5237.25 1 
  5149.58 6.9698e-14   5240.00 1 
  5152.28 6.9191e-14   5242.75 1 
  5154.98 6.9666e-14   5245.50 1 
  5157.69 7.0783e-14   5248.25 1 
  5160.39 6.9559e-14   5251.00 1 
  5163.09 6.7340e-14   5253.75 1 
  5165.79 6.5207e-14   5256.50 1 
  5168.50 6.4903e-14   5259.25 1 
  5171.20 6.2583e-14   5262.00 1 
  5173.90 6.2111e-14   5264.75 1 
  5176.60 6.2093e-14   5267.50 1 
  5179.31 6.2488e-14   5270.25 1 
  5182.01 6.5530e-14   5273.00 1 
  5184.71 6.6328e-14   5275.75 1 
  5187.41 6.7512e-14   5278.50 1 
  5190.12 6.8534e-14   5281.25 1 
  5192.82 7.4912e-14   5284.00 1 
  5195.52 7.8403e-14   5286.75 1 
  5198.22 8.2298e-14   5289.50 1 
  5200.93 8.1040e-14   5292.25 1 
  5203.63 7.7625e-14   5295.00 1 
  5206.33 7.2605e-14   5297.75 1 
  5209.03 6.9556e-14   5300.50 1 
  5211.74 7.0671e-14   5303.25 1 
  5214.44 7.1220e-14   5306.00 1 
  5217.14 7.3510e-14   5308.75 1 
  5219.84 7.3580e-14   5311.50 1 
  5222.55 7.2020e-14   5314.25 1 
  5225.25 7.0964e-14   5317.00 1 
  5227.95 7.2201e-14   5319.75 1 
  5230.65 7.2482e-14   5322.50 1 
  5233.36 7.3979e-14   5325.25 1 
  5236.06 7.4560e-14   5328.00 1 
  5238.76 7.6533e-14   5330.75 1 
  5241.47 7.5098e-14   5333.50 1 
  5244.17 7.4093e-14   5336.25 1 
  5246.87 7.4587e-14   5339.00 1 
  5249.57 7.3343e-14   5341.75 1 
  5252.28 7.3519e-14   5344.50 1 
  5254.98 7.4918e-14   5347.25 1 
  5257.68 7.3473e-14   5350.00 1 
  5260.38 7.3321e-14   5352.75 1 
  5263.09 7.0947e-14   5355.50 1 
  5265.79 6.8974e-14   5358.25 1 
  5268.49 6.9691e-14   5361.00 1 
  5271.19 7.1153e-14   5363.75 1 
  5273.90 7.1918e-14   5366.50 1 
  5276.60 7.3455e-14   5369.25 1 
  5279.30 7.3886e-14   5372.00 1 
  5282.00 7.6210e-14   5374.75 1 
  5284.71 7.5437e-14   5377.50 1 
  5287.41 7.5649e-14   5380.25 1 
  5290.11 7.7141e-14   5383.00 1 
  5292.81 7.5192e-14   5385.75 1 
  5295.52 7.4553e-14   5388.50 1 
  5298.22 7.5140e-14   5391.25 1 
  5300.92 7.6042e-14   5394.00 1 
  5303.62 7.5063e-14   5396.75 1 
  5306.33 7.6469e-14   5399.50 1 
  5309.03 7.7781e-14   5402.25 1 
  5311.73 7.8719e-14   5405.00 1 
  5314.43 7.7052e-14   5407.75 1 
  5317.14 7.5197e-14   5410.50 1 
  5319.84 7.3858e-14   5413.25 1 
  5322.54 7.4774e-14   5416.00 1 
  5325.24 7.3084e-14   5418.75 1 
  5327.95 7.3507e-14   5421.50 1 
  5330.65 7.3386e-14   5424.25 1 
  5333.35 7.3882e-14   5427.00 1 
  5336.05 7.4865e-14   5429.75 1 
  5338.76 7.4711e-14   5432.50 1 
  5341.46 7.4805e-14   5435.25 1 
  5344.16 7.3522e-14   5438.00 1 
  5346.86 7.6424e-14   5440.75 1 
  5349.57 7.5152e-14   5443.50 1 
  5352.27 7.6515e-14   5446.25 1 
  5354.97 7.8369e-14   5449.00 1 
  5357.67 7.8336e-14   5451.75 1 
  5360.38 7.7301e-14   5454.50 1 
  5363.08 7.7920e-14   5457.25 1 
  5365.78 7.6338e-14   5460.00 1 
  5368.48 7.2931e-14   5462.75 1 
  5371.19 7.3379e-14   5465.50 1 
  5373.89 7.3631e-14   5468.25 1 
  5376.59 7.5515e-14   5471.00 1 
  5379.29 7.5757e-14   5473.75 1 
  5382.00 7.5357e-14   5476.50 1 
  5384.70 7.3612e-14   5479.25 1 
  5387.40 7.4734e-14   5482.00 1 
  5390.11 7.2121e-14   5484.75 1 
  5392.81 7.2876e-14   5487.50 1 
  5395.51 7.3818e-14   5490.25 1 
  5398.21 7.4266e-14   5493.00 1 
  5400.92 7.2596e-14   5495.75 1 
  5403.62 7.1618e-14   5498.50 1 
  5406.32 7.2348e-14   5501.25 1 
  5409.02 7.1933e-14   5504.00 1 
  5411.73 7.2296e-14   5506.75 1 
  5414.43 7.4289e-14   5509.50 1 
  5417.13 7.3390e-14   5512.25 1 
  5419.83 7.5102e-14   5515.00 1 
  5422.54 7.4218e-14   5517.75 1 
  5425.24 7.3591e-14   5520.50 1 
  5427.94 7.2431e-14   5523.25 1 
  5430.64 7.1768e-14   5526.00 1 
  5433.35 7.2887e-14   5528.75 1 
  5436.05 7.3419e-14   5531.50 1 
  5438.75 7.6301e-14   5534.25 1 
  5441.45 7.4144e-14   5537.00 1 
  5444.16 7.4214e-14   5539.75 1 
  5446.86 7.3908e-14   5542.50 1 
  5449.56 7.3916e-14   5545.25 1 
  5452.26 7.2939e-14   5548.00 1 
  5454.97 7.3488e-14   5550.75 1 
  5457.67 7.3526e-14   5553.50 1 
  5460.37 7.2833e-14   5556.25 1 
  5463.07 7.3886e-14   5559.00 1 
  5465.78 7.2878e-14   5561.75 1 
  5468.48 7.3588e-14   5564.50 1 
  5471.18 7.1968e-14   5567.25 1 
  5473.88 7.2488e-14   5570.00 1 
  5476.59 7.3071e-14   5572.75 1 
  5479.29 7.2602e-14   5575.50 1 
  5481.99 7.2463e-14   5578.25 1 
  5484.69 7.3297e-14   5581.00 1 
  5487.40 7.2956e-14   5583.75 1 
  5490.10 7.4245e-14   5586.50 1 
  5492.80 7.4596e-14   5589.25 1 
  5495.50 7.2489e-14   5592.00 1 
  5498.21 7.5786e-14   5594.75 1 
  5500.91 7.3606e-14   5597.50 1 
  5503.61 7.2276e-14   5600.25 1 
  5506.31 7.1961e-14   5603.00 1 
  5509.02 7.2035e-14   5605.75 1 
  5511.72 7.2718e-14   5608.50 1 
  5514.42 7.3662e-14   5611.25 1 
  5517.12 7.3437e-14   5614.00 1 
  5519.83 7.4124e-14   5616.75 1 
  5522.53 7.4751e-14   5619.50 1 
  5525.23 7.4480e-14   5622.25 1 
  5527.93 7.1987e-14   5625.00 1 
  5530.64 7.2553e-14   5627.75 1 
  5533.34 7.3935e-14   5630.50 1 
  5536.04 7.3407e-14   5633.25 1 
  5538.75 7.5599e-14   5636.00 1 
  5541.45 7.3330e-14   5638.75 1 
  5544.15 7.5776e-14   5641.50 1 
  5546.85 7.4150e-14   5644.25 1 
  5549.56 7.4730e-14   5647.00 1 
  5552.26 7.4396e-14   5649.75 1 
  5554.96 7.3173e-14   5652.50 1 
  5557.66 7.4397e-14   5655.25 1 
  5560.37 7.4257e-14   5658.00 1 
  5563.07 7.2441e-14   5660.75 1 
  5565.77 7.5139e-14   5663.50 1 
  5568.47 7.3763e-14   5666.25 1 
  5571.18 7.2903e-14   5669.00 1 
  5573.88 7.2642e-14   5671.75 1 
  5576.58 7.3275e-14   5674.50 1 
  5579.28 7.3199e-14   5677.25 1 
  5581.99 7.1529e-14   5680.00 1 
  5584.69 7.2199e-14   5682.75 1 
  5587.39 7.1827e-14   5685.50 1 
  5590.09 7.0766e-14   5688.25 1 
  5592.80 6.9822e-14   5691.00 1 
  5595.50 7.1945e-14   5693.75 1 
  5598.20 7.1392e-14   5696.50 1 
  5600.90 7.1506e-14   5699.25 1 
  5603.61 7.1954e-14   5702.00 1 
  5606.31 7.1535e-14   5704.75 1 
  5609.01 7.1481e-14   5707.50 1 
  5611.71 7.2270e-14   5710.25 1 
  5614.42 7.2946e-14   5713.00 1 
  5617.12 7.3412e-14   5715.75 1 
  5619.82 7.1981e-14   5718.50 1 
  5622.52 7.1846e-14   5721.25 1 
  5625.23 7.1511e-14   5724.00 1 
  5627.93 7.1419e-14   5726.75 1 
  5630.63 7.2894e-14   5729.50 1 
  5633.33 7.3574e-14   5732.25 1 
  5636.04 7.0662e-14   5735.00 1 
  5638.74 7.2241e-14   5737.75 1 
  5641.44 7.2518e-14   5740.50 1 
  5644.14 7.2236e-14   5743.25 1 
  5646.85 7.0644e-14   5746.00 1 
  5649.55 7.1258e-14   5748.75 1 
  5652.25 7.2423e-14   5751.50 1 
  5654.95 7.1860e-14   5754.25 1 
  5657.66 7.2062e-14   5757.00 1 
  5660.36 7.0101e-14   5759.75 1 
  5663.06 7.0464e-14   5762.50 1 
  5665.76 7.0037e-14   5765.25 1 
  5668.47 6.9121e-14   5768.00 1 
  5671.17 7.0725e-14   5770.75 1 
  5673.87 7.3640e-14   5773.50 1 
  5676.58 7.2564e-14   5776.25 1 
  5679.28 7.0537e-14   5779.00 1 
  5681.98 7.2472e-14   5781.75 1 
  5684.68 7.3124e-14   5784.50 1 
  5687.39 7.2092e-14   5787.25 1 
  5690.09 7.2429e-14   5790.00 1 
  5692.79 7.0141e-14   5792.75 1 
  5695.49 7.1053e-14   5795.50 1 
  5698.20 7.2796e-14   5798.25 1 
  5700.90 7.1816e-14   5801.00 1 
  5703.60 7.0798e-14   5803.75 1 
  5706.30 7.0482e-14   5806.50 1 
  5709.01 7.1165e-14   5809.25 1 
  5711.71 6.9749e-14   5812.00 1 
  5714.41 7.2356e-14   5814.75 1 
  5717.11 7.4127e-14   5817.50 1 
  5719.82 7.5481e-14   5820.25 1 
  5722.52 7.4261e-14   5823.00 1 
  5725.22 7.6449e-14   5825.75 1 
  5727.92 7.4526e-14   5828.50 1 
  5730.63 7.2676e-14   5831.25 1 
  5733.33 7.4959e-14   5834.00 1 
  5736.03 7.6091e-14   5836.75 1 
  5738.73 7.5083e-14   5839.50 1 
  5741.44 7.4233e-14   5842.25 1 
  5744.14 7.2932e-14   5845.00 1 
  5746.84 7.2454e-14   5847.75 1 
  5749.54 7.3810e-14   5850.50 1 
  5752.25 7.4337e-14   5853.25 1 
  5754.95 7.4738e-14   5856.00 1 
  5757.65 7.4157e-14   5858.75 1 
  5760.35 7.5659e-14   5861.50 1 
  5763.06 7.3972e-14   5864.25 1 
  5765.76 7.6003e-14   5867.00 1 
  5768.46 7.4319e-14   5869.75 1 
  5771.16 7.5309e-14   5872.50 1 
  5773.87 7.5345e-14   5875.25 1 
  5776.57 7.3366e-14   5878.00 1 
  5779.27 7.2821e-14   5880.75 1 
  5781.97 7.1927e-14   5883.50 1 
  5784.68 7.0127e-14   5886.25 1 
  5787.38 7.2511e-14   5889.00 1 
  5790.08 7.1535e-14   5891.75 1 
  5792.78 7.2656e-14   5894.50 1 
  5795.49 7.4632e-14   5897.25 1 
  5798.19 7.3719e-14   5900.00 1 
  5800.89 7.4302e-14   5902.75 1 
  5803.59 7.5019e-14   5905.50 1 
  5806.30 7.4017e-14   5908.25 1 
  5809.00 7.3754e-14   5911.00 1 
  5811.70 7.4820e-14   5913.75 1 
  5814.40 7.3446e-14   5916.50 1 
  5817.11 7.1896e-14   5919.25 1 
  5819.81 7.3186e-14   5922.00 1 
  5822.51 7.3806e-14   5924.75 1 
  5825.22 7.4012e-14   5927.50 1 
  5827.92 7.4773e-14   5930.25 1 
  5830.62 7.3833e-14   5933.00 1 
  5833.32 7.1128e-14   5935.75 1 
  5836.03 7.1672e-14   5938.50 1 
  5838.73 7.4086e-14   5941.25 1 
  5841.43 7.6271e-14   5944.00 1 
  5844.13 7.5749e-14   5946.75 1 
  5846.84 7.3304e-14   5949.50 1 
  5849.54 7.2952e-14   5952.25 1 
  5852.24 7.3361e-14   5955.00 1 
  5854.94 7.1923e-14   5957.75 1 
  5857.65 7.2021e-14   5960.50 1 
  5860.35 7.0974e-14   5963.25 1 
  5863.05 7.1561e-14   5966.00 1 
  5865.75 7.3565e-14   5968.75 1 
  5868.46 7.2950e-14   5971.50 1 
  5871.16 7.5552e-14   5974.25 1 
  5873.86 7.4154e-14   5977.00 1 
  5876.56 7.4563e-14   5979.75 1 
  5879.27 7.2266e-14   5982.50 1 
  5881.97 6.8235e-14   5985.25 1 
  5884.67 6.5537e-14   5988.00 1 
  5887.37 6.3162e-14   5990.75 1 
  5890.08 6.2273e-14   5993.50 1 
  5892.78 6.2081e-14   5996.25 1 
  5895.48 6.0444e-14   5999.00 1 
  5898.18 6.3334e-14   6001.75 1 
  5900.89 6.6714e-14   6004.50 1 
  5903.59 6.7591e-14   6007.25 1 
  5906.29 6.6862e-14   6010.00 1 
  5908.99 6.8036e-14   6012.75 1 
  5911.70 6.9267e-14   6015.50 1 
  5914.40 6.8579e-14   6018.25 1 
  5917.10 6.9181e-14   6021.00 1 
  5919.80 7.0399e-14   6023.75 1 
  5922.51 6.8267e-14   6026.50 1 
  5925.21 6.9178e-14   6029.25 1 
  5927.91 7.1693e-14   6032.00 1 
  5930.61 7.0256e-14   6034.75 1 
  5933.32 7.0256e-14   6037.50 1 
  5936.02 6.9787e-14   6040.25 1 
  5938.72 6.8458e-14   6043.00 1 
  5941.42 6.8772e-14   6045.75 1 
  5944.13 6.8867e-14   6048.50 1 
  5946.83 6.8016e-14   6051.25 1 
  5949.53 6.8491e-14   6054.00 1 
  5952.23 6.5965e-14   6056.75 1 
  5954.94 6.6723e-14   6059.50 1 
  5957.64 6.7438e-14   6062.25 1 
  5960.34 6.9096e-14   6065.00 1 
  5963.04 6.7977e-14   6067.75 1 
  5965.75 7.0870e-14   6070.50 1 
  5968.45 7.1612e-14   6073.25 1 
  5971.15 7.1149e-14   6076.00 1 
  5973.86 7.1252e-14   6078.75 1 
  5976.56 7.0641e-14   6081.50 1 
  5979.26 6.7931e-14   6084.25 1 
  5981.96 7.0431e-14   6087.00 1 
  5984.67 7.1040e-14   6089.75 1 
  5987.37 6.9567e-14   6092.50 1 
  5990.07 6.8906e-14   6095.25 1 
  5992.77 7.0463e-14   6098.00 1 
  5995.48 6.8333e-14   6100.75 1 
  5998.18 7.0122e-14   6103.50 1 
  6000.88 6.9673e-14   6106.25 1 
  6003.58 7.0329e-14   6109.00 1 
  6006.29 7.1099e-14   6111.75 1 
  6008.99 6.9598e-14   6114.50 1 
  6011.69 6.8774e-14   6117.25 1 
  6014.39 6.8593e-14   6120.00 1 
  6017.10 6.8159e-14   6122.75 1 
  6019.80 6.8189e-14   6125.50 1 
  6022.50 6.9731e-14   6128.25 1 
  6025.20 7.0160e-14   6131.00 1 
  6027.91 7.0656e-14   6133.75 1 
  6030.61 6.8555e-14   6136.50 1 
  6033.31 7.2610e-14   6139.25 1 
  6036.01 7.0834e-14   6142.00 1 
  6038.72 7.0912e-14   6144.75 1 
  6041.42 7.2906e-14   6147.50 1 
  6044.12 7.1969e-14   6150.25 1 
  6046.82 7.0775e-14   6153.00 1 
  6049.53 7.0291e-14   6155.75 1 
  6052.23 6.9402e-14   6158.50 1 
  6054.93 6.9495e-14   6161.25 1 
  6057.63 7.0956e-14   6164.00 1 
  6060.34 7.0796e-14   6166.75 1 
  6063.04 6.8727e-14   6169.50 1 
  6065.74 6.8292e-14   6172.25 1 
  6068.44 6.9073e-14   6175.00 1 
  6071.15 6.8692e-14   6177.75 1 
  6073.85 6.9350e-14   6180.50 1 
  6076.55 6.9464e-14   6183.25 1 
  6079.25 6.8378e-14   6186.00 1 
  6081.96 6.8314e-14   6188.75 1 
  6084.66 6.8989e-14   6191.50 1 
  6087.36 6.7491e-14   6194.25 1 
  6090.06 6.8664e-14   6197.00 1 
  6092.77 6.9669e-14   6199.75 1 
  6095.47 6.9776e-14   6202.50 1 
  6098.17 7.0007e-14   6205.25 1 
  6100.87 6.9657e-14   6208.00 1 
  6103.58 6.9251e-14   6210.75 1 
  6106.28 7.0219e-14   6213.50 1 
  6108.98 7.1139e-14   6216.25 1 
  6111.68 7.1158e-14   6219.00 1 
  6114.39 6.9306e-14   6221.75 1 
  6117.09 6.6519e-14   6224.50 1 
  6119.79 6.7957e-14   6227.25 1 
  6122.50 6.8731e-14   6230.00 1 
  6125.20 6.9351e-14   6232.75 1 
  6127.90 7.0548e-14   6235.50 1 
  6130.60 6.7828e-14   6238.25 1 
  6133.31 6.7119e-14   6241.00 1 
  6136.01 6.7187e-14   6243.75 1 
  6138.71 6.8289e-14   6246.50 1 
  6141.41 6.7968e-14   6249.25 1 
  6144.12 6.8211e-14   6252.00 1 
  6146.82 6.9813e-14   6254.75 1 
  6149.52 6.9324e-14   6257.50 1 
  6152.22 6.8283e-14   6260.25 1 
  6154.93 6.7009e-14   6263.00 1 
  6157.63 6.6270e-14   6265.75 1 
  6160.33 6.3963e-14   6268.50 1 
  6163.03 6.4580e-14   6271.25 1 
  6165.74 6.7461e-14   6274.00 1 
  6168.44 6.5375e-14   6276.75 1 
  6171.14 6.7505e-14   6279.50 1 
  6173.84 6.6473e-14   6282.25 1 
  6176.55 6.9691e-14   6285.00 1 
  6179.25 6.9146e-14   6287.75 1 
  6181.95 6.8504e-14   6290.50 1 
  6184.65 6.7770e-14   6293.25 1 
  6187.36 6.7868e-14   6296.00 1 
  6190.06 6.4911e-14   6298.75 1 
  6192.76 6.7322e-14   6301.50 1 
  6195.46 6.8801e-14   6304.25 1 
  6198.17 6.8917e-14   6307.00 1 
  6200.87 7.0344e-14   6309.75 1 
  6203.57 6.8745e-14   6312.50 1 
  6206.27 6.9458e-14   6315.25 1 
  6208.98 7.0367e-14   6318.00 1 
  6211.68 6.9979e-14   6320.75 1 
  6214.38 6.7864e-14   6323.50 1 
  6217.08 6.6995e-14   6326.25 1 
  6219.79 6.7008e-14   6329.00 1 
  6222.49 6.3288e-14   6331.75 1 
  6225.19 6.2220e-14   6334.50 1 
  6227.89 6.6915e-14   6337.25 1 
  6230.60 6.5742e-14   6340.00 1 
  6233.30 6.5086e-14   6342.75 1 
  6236.00 6.5757e-14   6345.50 1 
  6238.70 6.6113e-14   6348.25 1 
  6241.41 6.7072e-14   6351.00 1 
  6244.11 6.4379e-14   6353.75 1 
  6246.81 6.6211e-14   6356.50 1 
  6249.51 6.2024e-14   6359.25 1 
  6252.22 6.4471e-14   6362.00 1 
  6254.92 6.4989e-14   6364.75 1 
  6257.62 6.5105e-14   6367.50 1 
  6260.32 6.6612e-14   6370.25 1 
  6263.03 6.5445e-14   6373.00 1 
  6265.73 6.6285e-14   6375.75 1 
  6268.43 6.7554e-14   6378.50 1 
  6271.14 6.6354e-14   6381.25 1 
  6273.84 6.6668e-14   6384.00 1 
  6276.54 6.6259e-14   6386.75 1 
  6279.24 6.8750e-14   6389.50 1 
  6281.95 6.7952e-14   6392.25 1 
  6284.65 6.9804e-14   6395.00 1 
  6287.35 7.2625e-14   6397.75 1 
  6290.05 7.7314e-14   6400.50 1 
  6292.76 8.5597e-14   6403.25 1 
  6295.46 9.7050e-14   6406.00 1 
  6298.16 1.0684e-13   6408.75 1 
  6300.86 1.0717e-13   6411.50 1 
  6303.57 9.6936e-14   6414.25 1 
  6306.27 8.6599e-14   6417.00 1 
  6308.97 7.8155e-14   6419.75 1 
  6311.67 7.3305e-14   6422.50 1 
  6314.38 6.8771e-14   6425.25 1 
  6317.08 6.8129e-14   6428.00 1 
  6319.78 6.8553e-14   6430.75 1 
  6322.48 6.8496e-14   6433.50 1 
  6325.19 6.7633e-14   6436.25 1 
  6327.89 6.7348e-14   6439.00 1 
  6330.59 6.6839e-14   6441.75 1 
  6333.29 6.7416e-14   6444.50 1 
  6336.00 6.6968e-14   6447.25 1 
  6338.70 6.7494e-14   6450.00 1 
  6341.40 6.8709e-14   6452.75 1 
  6344.10 6.7469e-14   6455.50 1 
  6346.81 6.7083e-14   6458.25 1 
  6349.51 6.8347e-14   6461.00 1 
  6352.21 7.1118e-14   6463.75 1 
  6354.91 7.2309e-14   6466.50 1 
  6357.62 7.2711e-14   6469.25 1 
  6360.32 7.8802e-14   6472.00 1 
  6363.02 7.8836e-14   6474.75 1 
  6365.72 7.8236e-14   6477.50 1 
  6368.43 7.4493e-14   6480.25 1 
  6371.13 7.1090e-14   6483.00 1 
  6373.83 6.9627e-14   6485.75 1 
  6376.53 6.6776e-14   6488.50 1 
  6379.24 6.7378e-14   6491.25 1 
  6381.94 6.9121e-14   6494.00 1 
  6384.64 7.0815e-14   6496.75 1 
  6387.34 6.8961e-14   6499.50 1 
  6390.05 6.7253e-14   6502.25 1 
  6392.75 6.5287e-14   6505.00 1 
  6395.45 6.7585e-14   6507.75 1 
  6398.15 6.8674e-14   6510.50 1 
  6400.86 6.7094e-14   6513.25 1 
  6403.56 6.7683e-14   6516.00 1 
  6406.26 6.8607e-14   6518.75 1 
  6408.96 6.6646e-14   6521.50 1 
  6411.67 7.0171e-14   6524.25 1 
  6414.37 6.9624e-14   6527.00 1 
  6417.07 6.7610e-14   6529.75 1 
  6419.78 6.7975e-14   6532.50 1 
  6422.48 6.8268e-14   6535.25 1 
  6425.18 6.5090e-14   6538.00 1 
  6427.88 6.5906e-14   6540.75 1 
  6430.59 6.6554e-14   6543.50 1 
  6433.29 6.8566e-14   6546.25 1 
  6435.99 6.8582e-14   6549.00 1 
  6438.69 6.7895e-14   6551.75 1 
  6441.40 6.6868e-14   6554.50 1 
  6444.10 6.4009e-14   6557.25 1 
  6446.80 6.5171e-14   6560.00 1 
  6449.50 6.6293e-14   6562.75 1 
  6452.21 6.6734e-14   6565.50 1 
  6454.91 6.3836e-14   6568.25 1 
  6457.61 6.3371e-14   6571.00 1 
  6460.31 6.6773e-14   6573.75 1 
  6463.02 6.8103e-14   6576.50 1 
  6465.72 6.9107e-14   6579.25 1 
  6468.42 6.8223e-14   6582.00 1 
  6471.12 6.6543e-14   6584.75 1 
  6473.83 6.7332e-14   6587.50 1 
  6476.53 6.7714e-14   6590.25 1 
  6479.23 6.6200e-14   6593.00 1 
  6481.93 6.6184e-14   6595.75 1 
  6484.64 6.6449e-14   6598.50 1 
  6487.34 6.6975e-14   6601.25 1 
  6490.04 6.7382e-14   6604.00 1 
  6492.74 6.3817e-14   6606.75 1 
  6495.45 6.4328e-14   6609.50 1 
  6498.15 6.5565e-14   6612.25 1 
  6500.85 6.6801e-14   6615.00 1 
  6503.55 6.7766e-14   6617.75 1 
  6506.26 6.8525e-14   6620.50 1 
  6508.96 6.9452e-14   6623.25 1 
  6511.66 6.8652e-14   6626.00 1 
  6514.36 6.9202e-14   6628.75 1 
  6517.07 6.8605e-14   6631.50 1 
  6519.77 6.9770e-14   6634.25 1 
  6522.47 7.1741e-14   6637.00 1 
  6525.17 7.2136e-14   6639.75 1 
  6527.88 7.3199e-14   6642.50 1 
  6530.58 7.6413e-14   6645.25 1 
  6533.28 7.8003e-14   6648.00 1 
  6535.98 8.0936e-14   6650.75 1 
  6538.69 8.8708e-14   6653.50 1 
  6541.39 1.0065e-13   6656.25 1 
  6544.09 1.1522e-13   6659.00 1 
  6546.79 1.2026e-13   6661.75 1 
  6549.50 1.2341e-13   6664.50 1 
  6552.20 1.2638e-13   6667.25 1 
  6554.90 1.4252e-13   6670.00 1 
  6557.61 1.7271e-13   6672.75 1 
  6560.31 1.9681e-13   6675.50 1 
  6563.01 1.9538e-13   6678.25 1 
  6565.71 1.6955e-13   6681.00 1 
  6568.42 1.3914e-13   6683.75 1 
  6571.12 1.2038e-13   6686.50 1 
  6573.82 1.2254e-13   6689.25 1 
  6576.52 1.4536e-13   6692.00 1 
  6579.23 1.7889e-13   6694.75 1 
  6581.93 1.9882e-13   6697.50 1 
  6584.63 1.8636e-13   6700.25 1 
  6587.33 1.5564e-13   6703.00 1 
  6590.04 1.2270e-13   6705.75 1 
  6592.74 9.9748e-14   6708.50 1 
  6595.44 8.5094e-14   6711.25 1 
  6598.14 7.6951e-14   6714.00 1 
  6600.85 7.3462e-14   6716.75 1 
  6603.55 7.3667e-14   6719.50 1 
  6606.25 7.0492e-14   6722.25 1 
  6608.95 7.1895e-14   6725.00 1 
  6611.66 7.1468e-14   6727.75 1 
  6614.36 7.1930e-14   6730.50 1 
  6617.06 7.2670e-14   6733.25 1 
  6619.76 7.9633e-14   6736.00 1 
  6622.47 8.9682e-14   6738.75 1 
  6625.17 1.0070e-13   6741.50 1 
  6627.87 1.0176e-13   6744.25 1 
  6630.57 8.7885e-14   6747.00 1 
  6633.28 7.5046e-14   6749.75 1 
  6635.98 6.9282e-14   6752.50 1 
  6638.68 6.8605e-14   6755.25 1 
  6641.38 6.8970e-14   6758.00 1 
  6644.09 6.7897e-14   6760.75 1 
  6646.79 7.0754e-14   6763.50 1 
  6649.49 6.6168e-14   6766.25 1 
  6652.19 6.8813e-14   6769.00 1 
  6654.90 6.7481e-14   6771.75 1 
  6657.60 6.5722e-14   6774.50 1 
  6660.30 6.5126e-14   6777.25 1 
  6663.00 6.6449e-14   6780.00 1 
  6665.71 6.3420e-14   6782.75 1 
  6668.41 6.3714e-14   6785.50 1 
  6671.11 6.4636e-14   6788.25 1 
  6673.81 6.4035e-14   6791.00 1 
  6676.52 6.4964e-14   6793.75 1 
  6679.22 6.4451e-14   6796.50 1 
  6681.92 6.4872e-14   6799.25 1 
  6684.62 6.3372e-14   6802.00 1 
  6687.33 6.3958e-14   6804.75 1 
  6690.03 6.4542e-14   6807.50 1 
  6692.73 6.4309e-14   6810.25 1 
  6695.43 6.4087e-14   6813.00 1 
  6698.14 6.3799e-14   6815.75 1 
  6700.84 6.5029e-14   6818.50 1 
  6703.54 6.8292e-14   6821.25 1 
  6706.25 7.6612e-14   6824.00 1 
  6708.95 8.9401e-14   6826.75 1 
  6711.65 1.0861e-13   6829.50 1 
  6721.10 6.4023e-14   6839.12 0 
  6736.59 6.5660e-14   6854.88 0 
  6752.12 6.4309e-14   6870.68 0 
  6767.69 6.5651e-14   6886.52 0 
  6783.29 6.5798e-14   6902.40 0 
  6798.93 6.4444e-14   6918.31 0 
  6814.60 6.4886e-14   6934.26 0 
  6830.31 6.5784e-14   6950.24 0 
  6846.05 6.3109e-14   6966.26 0 
  6861.84 6.3835e-14   6982.33 0 
  6877.66 6.3391e-14   6998.42 0 
  6893.51 6.2373e-14   7014.55 0 
  6909.40 6.3091e-14   7030.72 0 
  6925.33 6.3087e-14   7046.93 0 
  6941.29 6.4403e-14   7063.18 0 
  6957.29 6.5294e-14   7079.46 0 
  6973.33 6.5290e-14   7095.78 0 
  6989.41 6.5135e-14   7112.14 0 
  7005.52 6.3501e-14   7128.53 0 
  7021.67 6.2626e-14   7144.96 0 
  7037.86 6.4673e-14   7161.43 0 
  7054.08 6.6174e-14   7177.94 0 
  7070.34 6.2324e-14   7194.49 0 
  7086.64 6.4213e-14   7211.08 0 
  7102.98 6.1178e-14   7227.70 0 
  7119.35 6.0473e-14   7244.36 0 
  7135.76 5.9502e-14   7261.06 0 
  7152.21 6.0464e-14   7277.80 0 
  7168.70 6.0739e-14   7294.57 0 
  7185.23 5.9626e-14   7311.39 0 
  7201.79 5.8533e-14   7328.25 0 
  7218.39 6.1429e-14   7345.14 0 
  7235.03 6.1424e-14   7362.07 0 
  7251.71 6.0022e-14   7379.04 0 
  7268.43 5.9741e-14   7396.05 0 
  7285.18 6.0568e-14   7413.10 0 
  7301.98 6.1832e-14   7430.19 0 
  7318.81 6.1401e-14   7447.32 0 
  7335.68 6.2827e-14   7464.49 0 
  7352.59 6.2678e-14   7481.70 0 
  7369.54 6.1387e-14   7498.94 0 
  7386.53 6.4870e-14   7516.23 0 
  7403.56 6.4419e-14   7533.56 0 
  7420.62 6.2084e-14   7550.92 0 
  7437.73 6.3379e-14   7568.33 0 
  7454.88 6.3229e-14   7585.78 0 
  7472.06 6.3956e-14   7603.26 0 
  7489.29 6.3365e-14   7620.79 0 
  7506.55 6.4241e-14   7638.36 0 
  7523.86 6.5130e-14   7655.97 0 
  7541.20 6.4975e-14   7673.61 0 
  7558.58 6.4079e-14   7691.30 0 
  7576.01 6.3486e-14   7709.04 0 
  7593.47 6.2899e-14   7726.81 0 
  7610.98 6.2031e-14   7744.62 0 
  7628.52 6.1035e-14   7762.47 0 
  7646.11 6.1453e-14   7780.37 0 
  7663.73 6.2017e-14   7798.30 0 
  7681.40 5.9769e-14   7816.28 0 
  7699.11 6.0040e-14   7834.30 0 
  7716.86 6.0035e-14   7852.36 0 
  7734.64 5.8799e-14   7870.46 0 
  7752.48 5.8659e-14   7888.60 0 
  7770.35 5.9745e-14   7906.79 0 
  7788.26 5.7979e-14   7925.01 0 
  7806.21 5.8108e-14   7943.28 0 
  7824.21 6.0701e-14   7961.59 0 
  7842.24 5.7831e-14   7979.95 0 
  7860.33 5.9584e-14   7998.34 0 
  7878.44 5.9716e-14   8016.78 0 
  7896.60 6.0264e-14   8035.26 0 
  7914.81 5.9159e-14   8053.78 0 
  7933.06 5.7941e-14   8072.35 0 
  7951.34 5.5712e-14   8090.96 0 
  7969.67 5.7932e-14   8109.61 0 
  7988.04 5.7927e-14   8128.31 0 
  8006.46 5.7127e-14   8147.04 0 
  8024.91 5.9815e-14   8165.82 0 
  8043.42 6.0363e-14   8184.65 0 
  8061.96 5.9805e-14   8203.52 0 
  8080.54 5.7903e-14   8222.43 0 
  8099.17 5.6972e-14   8241.38 0 
  8117.84 5.9105e-14   8260.38 0 
  8136.55 5.9647e-14   8279.42 0 
  8155.31 5.8151e-14   8298.51 0 
  8174.11 5.6953e-14   8317.64 0 
  8192.95 5.6038e-14   8336.81 0 
  8211.84 5.8674e-14   8356.03 0 
  8230.77 5.7333e-14   8375.29 0 
  8249.74 5.9207e-14   8394.60 0 
  8268.76 6.0025e-14   8413.95 0 
  8287.82 5.8116e-14   8433.35 0 
  8306.93 5.7578e-14   8452.79 0 
  8326.08 5.7839e-14   8472.27 0 
  8345.27 5.6388e-14   8491.80 0 
  8364.51 5.7696e-14   8511.38 0 
  8383.79 5.6769e-14   8531.00 0 
  8403.12 5.8086e-14   8550.67 0 
  8422.49 5.6109e-14   8570.38 0 
  8441.90 5.5590e-14   8590.14 0 
  8461.36 5.6359e-14   8609.94 0 
  8480.87 5.5709e-14   8629.79 0 
  8500.42 5.6870e-14   8649.68 0 
  8520.02 5.5699e-14   8669.62 0 
  8539.65 5.5566e-14   8689.60 0 
  8559.34 5.3305e-14   8709.64 0 
  8579.07 5.5812e-14   8729.71 0 
  8598.85 5.5423e-14   8749.84 0 
  8618.67 5.4658e-14   8770.01 0 
  8638.54 5.5926e-14   8790.23 0 
  8658.45 5.3281e-14   8810.49 0 
  8678.42 5.2064e-14   8830.80 0 
  8698.42 5.0641e-14   8851.16 0 
  8718.47 5.5139e-14   8871.56 0 
  8738.57 5.4881e-14   8892.01 0 
  8758.72 5.3013e-14   8912.51 0 
  8778.91 5.5506e-14   8933.05 0 
  8799.14 5.4740e-14   8953.65 0 
  8819.43 5.5114e-14   8974.29 0 
  8839.76 5.5747e-14   8994.98 0 
  8860.13 5.4977e-14   9015.71 0 
  8880.56 5.2017e-14   9036.50 0 
  8901.03 5.2736e-14   9057.33 0 
  8921.55 5.2852e-14   9078.20 0 
  8942.12 5.2969e-14   9099.13 0 
  8962.73 5.1759e-14   9120.11 0 
  8983.39 5.0809e-14   9141.13 0 
  9004.10 5.2833e-14   9162.20 0 
  9024.86 4.6223e-14   9183.33 0 
  9045.66 5.5440e-14   9204.50 0 
  9066.51 5.6465e-14   9225.71 0 
  9087.42 5.3302e-14   9246.98 0 
  9108.37 5.2324e-14   9268.30 0 
  9129.36 4.9165e-14   9289.66 0 
  9150.41 5.2194e-14   9311.08 0 
  9171.50 5.2915e-14   9332.54 0 
  9192.64 5.1705e-14   9354.06 0 
  9213.83 5.2420e-14   9375.62 0 
  9235.08 4.8691e-14   9397.23 0 
  9256.36 4.9936e-14   9418.90 0 
  9277.70 5.4622e-14   9440.61 0 
  9299.09 5.0737e-14   9462.37 0 
  9320.53 5.2879e-14   9484.18 0 
  9342.01 5.2753e-14   9506.05 0 
  9363.55 5.2024e-14   9527.96 0 
  9385.13 5.2621e-14   9549.93 0 
  9406.77 5.1537e-14   9571.94 0 
  9428.45 5.2732e-14   9594.01 0 
  9450.19 5.2003e-14   9616.12 0 
  9471.97 5.2843e-14   9638.29 0 
  9493.81 5.2838e-14   9660.51 0 
  9515.69 5.1749e-14   9682.78 0 
  9537.63 5.1625e-14   9705.10 0 
  9559.61 4.9868e-14   9727.47 0 
  9581.65 5.2333e-14   9749.90 0 
  9603.74 5.1848e-14   9772.37 0 
  9625.88 5.1962e-14   9794.90 0 
  9648.07 5.1362e-14   9817.48 0 
  9670.31 5.1239e-14   9840.11 0 
  9692.60 5.1708e-14   9862.79 0 
  9714.94 5.1111e-14   9885.53 0 
  9737.34 5.0637e-14   9908.32 0 
  9759.79 5.0400e-14   9931.16 0 
  9782.28 4.9932e-14   9954.05 0 
  9804.84 5.0739e-14   9977.00 0 
  9827.44 5.0384e-14  10000.00 0 
  9850.09 5.0495e-14  10023.05 0 
  9872.80 5.0142e-14  10046.15 0 
  9895.56 5.0022e-14  10069.31 0 
  9918.38 4.9673e-14  10092.53 0 
  9941.24 4.9897e-14  10115.80 0 
  9964.15 4.9891e-14  10139.12 0 
  9987.12 4.9657e-14  10162.49 0 
 10033.22 4.9192e-14  10209.39 0 
 10079.54 4.8395e-14  10256.52 0 
 10126.06 4.9284e-14  10303.86 0 
 10172.79 4.8710e-14  10351.42 0 
 10219.76 4.8812e-14  10399.21 0 
 10266.93 4.8689e-14  10447.20 0 
 10290.59 4.8460e-14  10471.29 0 
 10506.07 4.6877e-14  10690.54 0 
 10701.40 4.4972e-14  10889.31 0 
 10900.35 4.3047e-14  11091.75 0 
 11103.00 4.1586e-14  11297.96 0 
 11309.42 4.0546e-14  11508.00 0 
 11493.18 4.0082e-14  11694.99 0 
 11706.86 3.8989e-14  11912.43 0 
 11897.09 3.7579e-14  12105.99 0 
 12090.40 3.6808e-14  12302.69 0 
 12286.85 3.6053e-14  12502.59 0 
 12486.49 3.5071e-14  12705.74 0 
 12689.38 3.4194e-14  12912.19 0 
 12895.57 3.3415e-14  13122.00 0 
 13105.10 3.2730e-14  13335.21 0 
 13287.41 3.1765e-14  13520.73 0 
 13503.32 3.1185e-14  13740.42 0 
 13691.17 3.0545e-14  13931.57 0 
 13913.63 2.9576e-14  14157.94 0 
 14107.19 2.8441e-14  14354.90 0 
 14303.44 2.7922e-14  14554.59 0 
 14502.42 2.7986e-14  14757.07 0 
 14704.17 2.7099e-14  14962.36 0 
 14908.73 2.7286e-14  15170.51 0 
 15116.12 2.7224e-14  15381.54 0 
 15291.16 2.7539e-14  15559.65 0 
 15503.88 2.7286e-14  15776.11 0 
 15683.41 2.6788e-14  15958.79 0 
 15901.59 2.5879e-14  16180.80 0 
 16085.72 2.5939e-14  16368.17 0 
 16309.48 2.5760e-14  16595.86 0 
 16498.34 2.5290e-14  16788.04 0 
 16689.39 2.5058e-14  16982.44 0 
 16882.65 2.4544e-14  17179.09 0 
 17117.51 2.3985e-14  17418.08 0 
 17315.71 2.3065e-14  17619.75 0 
 17516.22 2.2384e-14  17823.79 0 
 17719.05 2.1575e-14  18030.18 0 
 17883.01 2.0794e-14  18197.02 0 
 18090.07 1.9858e-14  18407.71 0 
 18299.55 1.9362e-14  18620.87 0 
 18511.45 1.8748e-14  18836.49 0 
 18682.72 1.7945e-14  19010.77 0 
 18899.07 1.7496e-14  19230.91 0 
 19117.91 1.7177e-14  19453.60 0 
 19294.82 1.6594e-14  19633.61 0 
 19518.22 1.5957e-14  19860.94 0 
 19698.83 1.5486e-14  20044.72 0 
 19881.11 1.5030e-14  20230.20 0 
 20111.31 1.4755e-14  20464.44 0 
 20297.40 1.4254e-14  20653.80 0 
 20485.20 1.4059e-14  20844.90 0 
 20722.41 1.3676e-14  21086.28 0 
 20914.16 1.3364e-14  21281.39 0 
 21107.66 1.3120e-14  21478.29 0 
 21302.98 1.2822e-14  21677.04 0 
 21500.10 1.2530e-14  21877.62 0 
 21699.03 1.2132e-14  22080.04 0 
 21899.81 1.1911e-14  22284.35 0 
 22102.46 1.1586e-14  22490.56 0 
 22306.96 1.1271e-14  22698.65 0 
 22513.37 1.1014e-14  22908.68 0 
 22721.67 1.0667e-14  23120.64 0 
 22879.18 9.5531e-15  23280.92 0 
 23090.87 9.3510e-15  23496.32 0 
 23304.53 8.1744e-15  23713.74 0 
 23520.18 7.6372e-15  23933.17 0 
 23683.20 7.6510e-15  24099.05 0 
 23902.35 6.9819e-15  24322.05 0 
 24123.50 6.6851e-15  24547.08 0 
 24290.73 6.5405e-15  24717.25 0 
 24515.47 6.0604e-15  24945.94 0 
 24685.42 5.9132e-15  25118.87 0 
 24913.81 5.0287e-15  25351.28 0 
 25071.86 5.1018e-15  25512.10 2 
 25166.99 4.9253e-15  25608.90 2 
 25262.02 4.5581e-15  25705.60 2 
 25357.15 4.5348e-15  25802.40 2 
 25452.28 4.7057e-15  25899.20 2 
 25547.32 5.0155e-15  25995.90 2 
 25642.45 4.9658e-15  26092.70 2 
 25737.48 4.9771e-15  26189.40 2 
 25832.60 5.0161e-15  26286.20 2 
 25927.73 5.2124e-15  26383.00 2 
 26022.77 4.9098e-15  26479.70 2 
 26117.90 4.8137e-15  26576.50 2 
 26213.03 4.6272e-15  26673.30 2 
 26308.06 5.1689e-15  26770.00 2 
 26403.19 5.1879e-15  26866.80 2 
 26498.22 5.0606e-15  26963.50 2 
 26593.35 4.9319e-15  27060.30 2 
 26688.48 4.7728e-15  27157.10 2 
 26783.51 4.9051e-15  27253.80 2 
 26878.64 4.6640e-15  27350.60 2 
 26973.77 4.9114e-15  27447.40 2 
 27068.80 4.8678e-15  27544.10 2 
 27163.93 4.1111e-15  27640.90 2 
 27258.96 3.8366e-15  27737.60 2 
 27354.09 3.1077e-15  27834.40 2 
 27449.22 3.8698e-15  27931.20 2 
 27544.25 3.2661e-15  28027.90 2 
 27639.38 3.6523e-15  28124.70 2 
 27734.51 3.1452e-15  28221.50 2 
 27829.54 3.8567e-15  28318.20 2 
 27924.67 4.0081e-15  28415.00 2 
 28019.70 4.4844e-15  28511.70 2 
 28114.83 4.2807e-15  28608.50 2 
 28209.96 4.4624e-15  28705.30 2 
 28304.99 3.9114e-15  28802.00 2 
 28400.12 3.8539e-15  28898.80 2 
 28495.25 3.7127e-15  28995.60 2 
 28590.28 4.1615e-15  29092.30 2 
 28685.41 4.1666e-15  29189.10 2 
 28780.44 4.0699e-15  29285.80 2 
 28875.58 3.9266e-15  29382.60 2 
 28970.70 4.0093e-15  29479.40 2 
 29065.73 3.8340e-15  29576.10 2 
 29160.86 3.8072e-15  29672.90 2 
 29255.99 3.5076e-15  29769.70 2 
 29351.03 3.6737e-15  29866.40 2 
 29446.15 3.6624e-15  29963.20 2 
 29541.19 3.8249e-15  30059.90 2 
 29636.32 3.3981e-15  30156.70 2 
 29731.45 3.4854e-15  30253.50 2 
 29826.48 3.0469e-15  30350.20 2 
 29921.61 3.3647e-15  30447.00 2 
 30016.73 3.2554e-15  30543.80 2 
 30111.77 3.5419e-15  30640.50 2 
 30206.90 3.6702e-15  30737.30 2 
 30301.93 3.6698e-15  30834.00 2 
 30397.06 3.7251e-15  30930.80 2 
 30492.19 3.5845e-15  31027.60 2 
 30587.22 3.1828e-15  31124.30 2 
 30682.35 2.9230e-15  31221.10 2 
 30777.48 2.5953e-15  31317.90 2 
 30872.51 2.9919e-15  31414.60 2 
 30967.64 2.9298e-15  31511.40 2 
 31062.67 3.3897e-15  31608.10 2 
 31157.80 3.3934e-15  31704.90 2 
 31252.93 3.7963e-15  31801.70 2 
 31347.96 3.7106e-15  31898.40 2 
 31443.09 3.6153e-15  31995.20 2 
 31538.22 3.4930e-15  32092.00 2 
 31633.25 3.7722e-15  32188.70 2 
 31728.38 3.7069e-15  32285.50 2 
 31823.41 3.8374e-15  32382.20 2 
 31918.54 3.3616e-15  32479.00 2 
 32013.67 3.6429e-15  32575.80 2 
 32108.70 3.2402e-15  32672.50 2 
 32203.83 3.4962e-15  32769.30 2 
 32298.96 3.5735e-15  32866.10 2 
 32393.99 4.1103e-15  32962.80 2 
 32489.12 3.9143e-15  33059.60 2 
 32584.16 3.6459e-15  33156.30 2 
 32679.29 3.5205e-15  33253.10 2 
 32774.41 3.7986e-15  33349.90 2 
 32869.45 3.4611e-15  33446.60 2 
 32964.58 3.5049e-15  33543.40 2 
 33059.70 3.2466e-15  33640.20 2 
 33154.73 3.7543e-15  33736.90 2 
 33249.86 3.5702e-15  33833.70 2 
 33344.90 3.6083e-15  33930.40 2 
 33440.03 3.5753e-15  34027.20 2 
 33535.16 3.4849e-15  34124.00 2 
 33630.19 3.1943e-15  34220.70 2 
 33725.32 3.2140e-15  34317.50 2 
 33820.45 3.1152e-15  34414.30 2 
 33915.48 3.2570e-15  34511.00 2 
 34010.61 2.8432e-15  34607.80 2 
 34105.64 3.0773e-15  34704.50 2 
 34200.77 2.9150e-15  34801.30 2 
 34295.90 3.6553e-15  34898.10 2 
 34390.93 3.1222e-15  34994.80 2 
 34486.06 3.5127e-15  35091.60 2 
 34581.19 2.9281e-15  35188.40 2 
 34676.22 3.2629e-15  35285.10 2 
 34771.35 3.0302e-15  35381.90 2 
 34866.38 3.1214e-15  35478.60 2 
 34961.51 2.9876e-15  35575.40 2 
 35056.64 3.0806e-15  35672.20 2 
 35151.67 2.7318e-15  35768.90 2 
 35246.80 2.9127e-15  35865.70 2 
 35341.93 2.7942e-15  35962.50 2 
 35436.96 2.9642e-15  36059.20 2 
 35532.09 2.8831e-15  36156.00 2 
 35627.12 3.0177e-15  36252.70 2 
 35722.25 3.0836e-15  36349.50 2 
 35817.38 2.9697e-15  36446.30 2 
 35912.41 2.7711e-15  36543.00 2 
 36007.54 2.7643e-15  36639.80 2 
 36102.67 2.8493e-15  36736.60 2 
 36197.71 3.0958e-15  36833.30 2 
 36292.84 2.5981e-15  36930.10 2 
 36387.87 2.6770e-15  37026.80 2 
 36482.99 2.1121e-15  37123.60 2 
 36578.12 2.6087e-15  37220.40 2 
 36673.15 2.4198e-15  37317.10 2 
 36768.28 2.8005e-15  37413.90 2 
 36863.41 2.7466e-15  37510.70 2 
 36958.45 2.9276e-15  37607.40 2 
 37053.58 3.0086e-15  37704.20 2 
 37148.61 2.9944e-15  37800.90 2 
 37243.74 2.8976e-15  37897.70 2 
 37338.87 2.8150e-15  37994.50 2 
 37433.90 2.7779e-15  38091.20 2 
 37529.03 2.8723e-15  38188.00 2 
 37624.16 2.9151e-15  38284.80 2 
 37719.19 2.9343e-15  38381.50 2 
 37814.32 2.8392e-15  38478.30 2 
 37909.35 2.7712e-15  38575.00 2 
 38004.48 2.7244e-15  38671.80 2 
 38099.61 2.8893e-15  38768.60 2 
 38194.64 2.7676e-15  38865.30 2 
 38289.77 2.7682e-15  38962.10 2 
 38384.90 2.5647e-15  39058.90 2 
 38479.93 2.6583e-15  39155.60 2 
 38575.06 2.5549e-15  39252.40 2 
 38670.09 2.6206e-15  39349.10 2 
 38765.22 2.4865e-15  39445.90 2 
 38860.35 2.5841e-15  39542.70 2 
 38955.38 2.4014e-15  39639.40 2 
 39050.51 2.5004e-15  39736.20 2 
 39145.64 2.5306e-15  39833.00 2 
 39240.67 2.6990e-15  39929.70 2 
 39335.80 2.5802e-15  40026.50 2 
 39430.83 2.5743e-15  40123.20 2 
 39525.96 2.5460e-15  40220.00 2 
 39621.09 2.6203e-15  40316.80 2 
 39716.12 2.5798e-15  40413.50 2 
 39811.25 2.5941e-15  40510.30 2 
 39906.38 2.5725e-15  40607.10 2 
 40001.42 2.5164e-15  40703.80 2 
 40096.55 2.1709e-15  40800.60 2 
 40191.57 2.2133e-15  40897.30 2 
 40286.71 2.2478e-15  40994.10 2 
 40381.83 2.5373e-15  41090.90 2 
 40476.87 2.5376e-15  41187.60 2 
 40571.99 2.4795e-15  41284.40 2 
 40667.13 2.5007e-15  41381.20 2 
 40762.16 2.4745e-15  41477.90 2 
 40857.29 2.0579e-15  41574.70 2 
 40952.32 1.9319e-15  41671.40 2 
 41047.45 1.7675e-15  41768.20 2 
 41142.58 2.1367e-15  41865.00 2 
 41237.61 2.2173e-15  41961.70 2 
 41332.74 2.3542e-15  42058.50 2 
 41427.87 2.3515e-15  42155.30 2 
 41522.90 2.4148e-15  42252.00 2 
 41618.03 2.3111e-15  42348.80 2 
 41713.06 2.1433e-15  42445.50 2 
 41808.19 2.2418e-15  42542.30 2 
 41903.32 2.3926e-15  42639.10 2 
 41998.35 2.4835e-15  42735.80 2 
 42093.48 2.2515e-15  42832.60 2 
 42188.61 2.1259e-15  42929.40 2 
 42283.64 2.2573e-15  43026.10 2 
 42378.77 2.2037e-15  43122.90 2 
 42473.80 2.1414e-15  43219.60 2 
 42568.93 2.1224e-15  43316.40 2 
 42664.06 2.2531e-15  43413.20 2 
 42759.09 2.3854e-15  43509.90 2 
 42854.22 2.4344e-15  43606.70 2 
 42949.35 2.3940e-15  43703.50 2 
 43044.39 2.4001e-15  43800.20 2 
 43139.51 2.1235e-15  43897.00 2 
 43234.55 2.0285e-15  43993.70 2 
 43329.67 1.8083e-15  44090.50 2 
 43424.80 1.9867e-15  44187.30 2 
 43519.84 2.0255e-15  44284.00 2 
 43614.96 2.0623e-15  44380.80 2 
 43710.10 2.0125e-15  44477.60 2 
 43805.13 2.0995e-15  44574.30 2 
 43900.26 2.0155e-15  44671.10 2 
 43995.29 2.1956e-15  44767.80 2 
 44090.42 2.0486e-15  44864.60 2 
 44185.54 2.2670e-15  44961.40 2 
 44280.58 2.0624e-15  45058.10 2 
 44375.71 2.1326e-15  45154.90 2 
 44470.84 2.0451e-15  45251.70 2 
 44565.87 2.0877e-15  45348.40 2 
 44661.00 1.7191e-15  45445.20 2 
 44756.03 1.6575e-15  45541.90 2 
 44851.16 1.2724e-15  45638.70 2 
 44946.29 1.6370e-15  45735.50 2 
 45041.32 1.7247e-15  45832.20 2 
 45136.45 2.1196e-15  45929.00 2 
 45231.58 1.8694e-15  46025.80 2 
 45326.61 1.9017e-15  46122.50 2 
 45421.74 1.6588e-15  46219.30 2 
 45516.77 1.9535e-15  46316.00 2 
 45611.90 1.7199e-15  46412.80 2 
 45707.03 1.9194e-15  46509.60 2 
 45802.06 1.7790e-15  46606.30 2 
 45897.19 2.0098e-15  46703.10 2 
 45992.32 1.9398e-15  46799.90 2 
 46087.35 2.0136e-15  46896.60 2 
 46182.48 1.7291e-15  46993.40 2 
 46277.51 1.8587e-15  47090.10 2 
 46372.64 1.7428e-15  47186.90 2 
 46467.78 2.0599e-15  47283.70 2 
 46562.80 2.0608e-15  47380.40 2 
 46657.93 2.2398e-15  47477.20 2 
 46753.06 2.2971e-15  47574.00 2 
 46848.09 2.3181e-15  47670.70 2 
 46943.22 2.2501e-15  47767.50 2 
 47038.25 2.0764e-15  47864.20 2 
 47133.38 2.0126e-15  47961.00 2 
 47228.52 2.0207e-15  48057.80 2 
 47323.55 2.1176e-15  48154.50 2 
 47418.68 2.1117e-15  48251.30 2 
 47513.80 2.0665e-15  48348.10 2 
 47608.84 2.0810e-15  48444.80 2 
 47703.96 2.0381e-15  48541.60 2 
 47799.00 2.0834e-15  48638.30 2 
 47894.12 1.9560e-15  48735.10 2 
 47989.26 2.0251e-15  48831.90 2 
 48084.29 1.9886e-15  48928.60 2 
 48179.42 1.9110e-15  49025.40 2 
 48274.55 1.8401e-15  49122.20 2 
 48369.58 1.8791e-15  49218.90 2 
 48464.71 1.9644e-15  49315.70 2 
 48560.72 1.8772e-15  49413.40 2 
 49046.33 1.8218e-15  49907.53 0 
 49536.79 1.7659e-15  50406.61 0 
 50032.16 1.7094e-15  50910.67 0 
 50532.48 1.6524e-15  51419.78 0 
 51037.80 1.5948e-15  51933.98 0 
 51548.18 1.5366e-15  52453.32 0 
 52063.66 1.4778e-15  52977.85 0 
 52436.99 1.4353e-15  53357.73 3 
 52741.49 1.5115e-15  53667.58 3 
 53046.01 1.6165e-15  53977.44 3 
 53350.51 1.6833e-15  54287.29 3 
 53655.01 1.4805e-15  54597.14 3 
 53959.52 1.2703e-15  54907.00 3 
 54264.03 1.3696e-15  55216.85 3 
 54568.53 1.4055e-15  55526.70 3 
 54873.04 1.4729e-15  55836.56 3 
 55177.55 1.6508e-15  56146.41 3 
 55482.06 1.3711e-15  56456.27 3 
 55786.56 1.3307e-15  56766.12 3 
 56091.08 1.2886e-15  57075.98 3 
 56395.58 1.2198e-15  57385.83 3 
 56700.08 1.3662e-15  57695.68 3 
 57004.58 1.4105e-15  58005.53 3 
 57309.10 1.2925e-15  58315.39 3 
 57613.61 1.2479e-15  58625.25 3 
 57918.11 1.2573e-15  58935.10 3 
 58222.62 1.2642e-15  59244.95 3 
 58527.13 1.3269e-15  59554.81 3 
 58831.64 1.3015e-15  59864.66 3 
 59136.14 1.3280e-15  60174.51 3 
 59440.65 1.2616e-15  60484.37 3 
 59745.15 1.2133e-15  60794.22 3 
 60049.66 1.2633e-15  61104.07 3 
 60354.17 1.2652e-15  61413.93 3 
 60658.68 1.2644e-15  61723.78 3 
 60963.18 1.2864e-15  62033.63 3 
 61267.69 1.2939e-15  62343.49 3 
 61572.19 1.3232e-15  62653.34 3 
 61876.70 1.3637e-15  62963.19 3 
 62181.21 1.4486e-15  63273.05 3 
 62485.72 1.4312e-15  63582.90 3 
 62790.23 1.4397e-15  63892.76 3 
 63094.73 1.3639e-15  64202.61 3 
 63399.23 1.2471e-15  64512.46 3 
 63703.75 1.2547e-15  64822.32 3 
 64008.25 1.2668e-15  65132.17 3 
 64312.75 1.2564e-15  65442.02 3 
 64617.27 1.1981e-15  65751.88 3 
 64921.77 1.2121e-15  66061.73 3 
 65226.27 1.1325e-15  66371.58 3 
 65530.79 1.1523e-15  66681.45 3 
 65835.29 1.0993e-15  66991.29 3 
 66139.79 1.1164e-15  67301.14 3 
 66444.30 1.1102e-15  67611.00 3 
 66748.81 1.2040e-15  67920.85 3 
 67053.32 1.2536e-15  68230.71 3 
 67357.83 1.1525e-15  68540.56 3 
 67662.33 1.1854e-15  68850.41 3 
 67966.84 1.2238e-15  69160.27 3 
 68271.34 1.2470e-15  69470.12 3 
 68575.85 1.3696e-15  69779.98 3 
 68880.36 1.6142e-15  70089.83 3 
 69184.86 1.6421e-15  70399.68 3 
 69489.38 1.4700e-15  70709.54 3 
 69793.88 1.6388e-15  71019.39 3 
 70098.38 1.3692e-15  71329.24 3 
 70402.90 1.2389e-15  71639.10 3 
 70707.39 1.2999e-15  71948.95 3 
 71011.91 1.2060e-15  72258.81 3 
 71316.41 1.2842e-15  72568.66 3 
 71620.92 1.3057e-15  72878.51 3 
 71925.44 1.3655e-15  73188.38 3 
 72229.93 1.3222e-15  73498.22 3 
 72534.44 1.4078e-15  73808.07 3 
 72838.95 1.3718e-15  74117.93 3 
 73143.46 1.2949e-15  74427.78 3 
 73447.96 1.3841e-15  74737.63 3 
 73752.46 1.4539e-15  75047.48 3 
 74037.05 1.2427e-15  75337.06 3 
 74056.98 1.3648e-15  75357.34 3 
 74361.49 1.2802e-15  75667.20 3 
 74647.26 1.3885e-15  75957.99 3 
 74665.99 1.5015e-15  75977.05 3 
 75257.49 1.3645e-15  76578.94 3 
 75867.71 1.4143e-15  77199.88 3 
 76477.94 1.3997e-15  77820.82 3 
 77088.17 1.4039e-15  78441.76 3 
 77698.40 1.4055e-15  79062.71 3 
 78308.63 1.4392e-15  79683.65 3 
 78918.85 1.3666e-15  80304.59 3 
 79529.09 1.3451e-15  80925.54 3 
 80139.31 1.4805e-15  81546.48 3 
 80749.53 1.3823e-15  82167.41 3 
 81359.76 1.3267e-15  82788.36 3 
 81969.99 1.3370e-15  83409.30 3 
 82580.22 1.3133e-15  84030.25 3 
 83190.45 1.3139e-15  84651.19 3 
 83800.68 1.3392e-15  85272.13 3 
 84410.90 1.3802e-15  85893.07 3 
 85021.14 1.3801e-15  86514.02 3 
 85631.35 1.3629e-15  87134.95 3 
 86241.58 1.3551e-15  87755.90 3 
 86851.81 1.3723e-15  88376.84 3 
 87462.04 1.3747e-15  88997.78 3 
 88072.26 1.3869e-15  89618.72 3 
 88682.49 1.3953e-15  90239.66 3 
 89292.71 1.4007e-15  90860.60 3 
 89902.95 1.4228e-15  91481.55 3 
 90513.17 1.4290e-15  92102.49 3 
 91123.40 1.4307e-15  92723.44 3 
 91733.63 1.4640e-15  93344.38 3 
 92343.85 1.5006e-15  93965.32 3 
 92954.08 1.4974e-15  94586.26 3 
 93564.30 1.5431e-15  95207.20 3 
 94174.54 1.5657e-15  95828.15 3 
 94784.76 1.5997e-15  96449.09 3 
 95394.98 1.6439e-15  97070.02 3 
 96005.22 1.7693e-15  97690.98 3 
 96615.45 2.0182e-15  98311.92 3 
 97225.67 1.8716e-15  98932.86 3 
 97835.90 1.7611e-15  99553.80 3 
 98446.09 1.7587e-15 100174.70 3 
 99056.36 1.7939e-15 100795.70 3 
 99666.55 1.8046e-15 101416.59 3 
100276.84 1.7988e-15 102037.60 3 
100887.02 1.8263e-15 102658.50 3 
101497.30 1.8217e-15 103279.49 3 
102107.50 1.8104e-15 103900.41 3 
102717.68 1.8104e-15 104521.30 3 
103327.96 1.8166e-15 105142.30 3 
103938.15 1.8254e-15 105763.20 3 
104548.44 1.8361e-15 106384.20 3 
105158.62 1.8549e-15 107005.10 3 
105768.81 1.8487e-15 107626.00 3 
106379.09 1.8768e-15 108247.00 3 
106989.28 1.8671e-15 108867.91 3 
107599.56 1.8735e-15 109488.90 3 
108209.74 1.8831e-15 110109.80 3 
108820.03 1.8861e-15 110730.80 3 
109430.22 1.8682e-15 111351.70 3 
110040.40 1.8622e-15 111972.60 3 
110650.69 1.8953e-15 112593.60 3 
111260.87 1.9271e-15 113214.50 3 
111871.15 1.9482e-15 113835.50 3 
112481.34 2.0943e-15 114456.40 3 
113091.62 2.0739e-15 115077.40 3 
113701.81 2.0009e-15 115698.30 3 
114311.99 1.9498e-15 116319.20 3 
114922.28 1.8937e-15 116940.20 3 
115532.47 1.8463e-15 117561.10 3 
116142.74 1.7994e-15 118182.09 3 
116752.93 1.7646e-15 118802.99 3 
117363.22 1.7748e-15 119424.00 3 
117973.40 1.7661e-15 120044.90 3 
118583.59 1.7735e-15 120665.80 3 
119193.88 1.7644e-15 121286.80 3 
119804.06 1.7673e-15 121907.70 3 
120414.34 1.7689e-15 122528.70 3 
121024.52 1.7509e-15 123149.59 3 
121634.72 1.7424e-15 123770.51 3 
122245.00 1.7515e-15 124391.50 3 
122855.18 1.8237e-15 125012.40 3 
123465.47 1.7491e-15 125633.40 3 
124075.66 1.7214e-15 126254.30 3 
124685.94 1.6910e-15 126875.30 3 
125296.13 1.6891e-15 127496.20 3 
125906.31 1.6858e-15 128117.10 3 
126516.60 1.7135e-15 128738.10 3 
127126.78 1.7634e-15 129359.00 3 
127737.06 2.0294e-15 129980.00 3 
128347.25 2.1512e-15 130600.90 3 
128957.43 1.7941e-15 131221.80 3 
129567.72 1.6916e-15 131842.80 3 
130177.91 1.6439e-15 132463.70 3 
130788.19 1.6209e-15 133084.70 3 
131398.37 1.6338e-15 133705.59 3 
132008.65 1.6299e-15 134326.59 3 
132618.85 1.6422e-15 134947.50 3 
133229.04 1.6614e-15 135568.41 3 
133839.32 1.6711e-15 136189.41 3 
134449.50 1.6906e-15 136810.30 3 
135059.78 1.6946e-15 137431.30 3 
135669.97 1.6973e-15 138052.20 3 
136280.26 1.7099e-15 138673.20 3 
136890.43 1.7314e-15 139294.09 3 
137500.63 1.7302e-15 139915.00 3 
138110.91 1.7533e-15 140536.00 3 
138721.10 1.7549e-15 141156.91 3 
139331.37 1.7562e-15 141777.89 3 
139941.56 1.7471e-15 142398.80 3 
140551.85 1.6973e-15 143019.80 3 
141162.04 1.6234e-15 143640.70 3 
141772.22 1.5453e-15 144261.59 3 
142382.51 1.5337e-15 144882.61 3 
142907.59 1.7727e-15 145416.91 3 
143808.66 1.7829e-15 146333.80 3 
144709.84 1.7655e-15 147250.80 3 
145610.92 1.7716e-15 148167.70 3 
146511.99 1.7538e-15 149084.59 3 
147413.07 1.7725e-15 150001.50 3 
148314.25 1.7543e-15 150918.50 3 
149215.33 1.7739e-15 151835.41 3 
150116.40 1.8064e-15 152752.30 3 
151017.58 2.0009e-15 153669.30 3 
151918.66 1.7368e-15 154586.20 3 
152819.73 1.7856e-15 155503.09 3 
153720.82 1.7752e-15 156420.00 3 
154621.99 1.8108e-15 157337.00 3 
155523.08 1.9987e-15 158253.91 3 
156424.15 1.9382e-15 159170.80 3 
157325.32 1.8553e-15 160087.80 3 
158226.41 1.8320e-15 161004.70 3 
159127.47 1.8555e-15 161921.59 3 
160028.65 1.8625e-15 162838.59 3 
160929.73 1.8755e-15 163755.50 3 
161830.80 1.8899e-15 164672.39 3 
162731.89 1.8654e-15 165589.30 3 
163633.08 1.9303e-15 166506.31 3 
164534.13 1.9619e-15 167423.19 3 
165435.22 1.9453e-15 168340.09 3 
166336.30 1.9561e-15 169257.00 3 
167237.48 1.9309e-15 170174.00 3 
168138.56 1.9007e-15 171090.91 3 
169039.65 1.9504e-15 172007.81 3 
169940.82 2.2246e-15 172924.81 3 
170841.89 2.2138e-15 173841.70 3 
171742.97 1.9984e-15 174758.61 3 
172644.15 1.9636e-15 175675.61 3 
173545.22 1.9438e-15 176592.50 3 
174446.30 1.9601e-15 177509.41 3 
175347.37 1.9616e-15 178426.30 3 
176248.55 1.9636e-15 179343.30 3 
177149.63 1.9339e-15 180260.20 3 
178050.70 1.9210e-15 181177.09 3 
178951.88 1.9361e-15 182094.09 3 
179852.96 1.9420e-15 183011.00 3 
180754.03 1.9408e-15 183927.89 3 
181655.21 1.9233e-15 184844.89 3 
182556.29 1.9288e-15 185761.80 3 
183457.38 1.9617e-15 186678.70 3 
184358.44 1.9319e-15 187595.59 3 
185259.62 1.9835e-15 188512.59 3 
186160.70 1.9518e-15 189429.50 3 
187061.77 1.9706e-15 190346.39 3 
187962.96 2.0057e-15 191263.41 3 
188864.05 1.9537e-15 192180.31 3 
189765.10 1.9711e-15 193097.19 3 
190666.19 1.8962e-15 194014.09 3 
191567.38 1.9142e-15 194931.11 3 
192468.45 1.8648e-15 195848.00 3 
193369.53 1.8847e-15 196764.91 3 
194270.71 1.8377e-15 197681.91 3 
195171.78 1.8007e-15 198598.80 3 
196072.86 1.8268e-15 199515.70 3 
196973.94 1.8434e-15 200432.61 3 
197875.12 1.8166e-15 201349.61 3 
198776.19 1.8295e-15 202266.50 3 
199677.27 1.7737e-15 203183.41 3 
200578.45 2.0295e-15 204100.41 3 
202005.39 1.6405e-15 205552.41 3 
203730.09 1.8626e-15 207307.39 3 
205455.79 1.7684e-15 209063.39 3 
207182.49 1.6744e-15 210820.41 3 
208910.05 1.8014e-15 212578.30 3 
210638.49 1.7588e-15 214337.09 3 
212367.92 1.6613e-15 216096.89 3 
214098.26 1.7394e-15 217857.61 3 
215829.55 1.8017e-15 219619.30 3 
217561.83 1.6885e-15 221382.00 3 
219294.99 1.6188e-15 223145.59 3 
221029.15 1.7065e-15 224910.20 3 
222764.19 1.7439e-15 226675.70 3 
224500.19 1.6758e-15 228442.19 3 
226237.19 1.6183e-15 230209.69 3 
227975.08 1.6468e-15 231978.09 3 
229713.95 1.6855e-15 233747.50 3 
231453.81 1.6695e-15 235517.91 3 
233194.54 1.5993e-15 237289.20 3 
234936.36 1.6042e-15 239061.61 3 
236678.97 1.6105e-15 240834.81 3 
238422.63 1.6343e-15 242609.09 3 
240167.31 1.5605e-15 244384.41 3 
241912.86 1.5250e-15 246160.61 3 
243659.38 1.5619e-15 247937.80 3 
245406.90 1.7241e-15 249716.00 3 
247155.29 1.5604e-15 251495.09 3 
248904.78 1.5099e-15 253275.30 3 
250655.15 1.4868e-15 255056.41 3 
252406.60 1.4754e-15 256838.61 3 
254158.91 1.7267e-15 258621.69 3 
255912.25 1.4792e-15 260405.81 3 
257666.54 1.4924e-15 262190.91 3 
259421.81 1.4613e-15 263977.00 3 
261178.07 1.4332e-15 265764.09 3 
262935.34 1.4260e-15 267552.22 3 
264693.56 1.4182e-15 269341.31 3 
266452.76 1.4199e-15 271131.41 3 
268212.95 1.4048e-15 272922.50 3 
269974.12 1.3812e-15 274714.59 3 
271736.39 1.3451e-15 276507.81 3 
273499.53 1.3591e-15 278301.91 3 
275263.65 1.3869e-15 280097.00 3 
277028.84 1.3789e-15 281893.19 3 
278795.04 1.3254e-15 283690.41 3 
280562.11 1.3224e-15 285488.50 3 
282330.25 1.2966e-15 287287.69 3 
284099.40 1.3065e-15 289087.91 3 
285869.63 1.2860e-15 290889.22 3 
287640.81 1.3099e-15 292691.50 3 
289412.92 1.2512e-15 294494.72 3 
291186.16 1.3234e-15 296299.09 3 
292960.32 1.2530e-15 298104.41 3 
294735.52 1.2459e-15 299910.78 3 
296511.74 1.2148e-15 301718.19 3 
298288.94 1.2588e-15 303526.59 3 
300067.21 1.2735e-15 305336.09 3 
301846.47 1.2234e-15 307146.59 3 
303626.71 1.2001e-15 308958.09 3 
305408.03 1.2106e-15 310770.69 3 
307190.45 1.1734e-15 312584.41 3 
308973.82 1.1399e-15 314399.09 3 
310758.21 1.1552e-15 316214.81 3 
312543.55 1.1856e-15 318031.50 3 
314330.08 1.1500e-15 319849.41 3 
316117.51 1.1260e-15 321668.22 3 
317906.07 1.1579e-15 323488.19 3 
319695.56 1.0898e-15 325309.09 3 
321486.21 1.1282e-15 327131.19 3 
323277.88 1.1025e-15 328954.31 3 
325070.46 1.0749e-15 330778.38 3 
326864.19 1.1005e-15 332603.59 3 
328658.98 1.2949e-15 334429.91 3 
330454.82 1.1524e-15 336257.28 3 
332251.71 1.0927e-15 338085.72 3 
334049.61 1.1886e-15 339915.19 3 
335848.52 1.0708e-15 341745.69 3 
337648.54 1.0254e-15 343577.31 3 
339449.73 1.0659e-15 345410.12 3 
341251.77 1.0767e-15 347243.81 3 
343055.02 1.1335e-15 349078.72 3 
