# An Atlas of Galaxy Spectral Energy Distributions from the Ultraviolet to the Mid-Infrared
# Brown et al. (2014)
# http://dx.doi.org/10.5072/03/529D3551F0117
# 
# Column 1 : Restframe Wavelength (Angstrom)
# Column 2 : Flux per unit wavelength (ergs/s/cm^2/Angstrom)
# Column 3 : Observed wavelength (Angstrom)
# Column 4 : Source (0 = model, 1 = Optical Spectrum, 2 = Akari, 3 = Spitzer IRS)
# 
   100.10 2.1555e-23    103.28 0 
   101.96 2.8810e-23    105.20 0 
   104.09 3.5200e-23    107.40 0 
   106.03 4.4519e-23    109.40 0 
   108.00 5.6695e-23    111.43 0 
   110.01 8.7608e-23    113.50 0 
   113.87 1.2988e-22    117.49 0 
   117.88 1.8136e-22    121.62 0 
   120.90 5.6695e-22    124.74 0 
   124.86 7.7543e-22    128.82 0 
   126.89 8.8827e-22    130.92 0 
   128.06 9.6061e-22    132.13 0 
   131.05 1.1602e-21    135.21 0 
   131.96 1.3507e-21    136.14 0 
   134.10 1.5225e-21    138.36 0 
   136.91 1.9795e-21    141.25 0 
   140.10 2.3418e-21    144.54 0 
   143.03 4.8367e-21    147.57 0 
   147.04 9.8072e-21    151.71 0 
   151.16 1.1845e-20    155.96 0 
   155.03 1.4373e-20    159.96 0 
   159.01 1.7440e-20    164.06 0 
   161.97 1.9978e-20    167.11 0 
   166.12 2.3908e-20    171.40 0 
   169.99 2.8090e-20    175.39 0 
   173.15 3.1735e-20    178.65 0 
   177.18 3.6944e-20    182.81 0 
   180.06 4.1167e-20    185.78 0 
   182.15 4.4314e-20    187.93 0 
   185.96 5.0880e-20    191.87 0 
   191.17 6.0054e-20    197.24 0 
   193.83 6.6305e-20    199.99 0 
   197.89 7.5084e-20    204.17 0 
   202.03 8.4634e-20    208.45 0 
   204.85 9.2373e-20    211.35 0 
   210.10 1.0246e-19    216.77 0 
   215.99 1.2461e-19    222.84 0 
   220.00 1.3853e-19    226.99 0 
   223.06 1.4810e-19    230.14 0 
   227.21 1.6427e-19    234.42 0 
   229.84 2.6154e-19    237.14 0 
   234.11 4.3506e-19    241.55 0 
   240.12 5.9367e-19    247.74 0 
   246.28 6.1030e-19    254.10 0 
   252.01 6.9111e-19    260.02 0 
   257.29 6.0332e-19    265.46 0 
   260.27 7.3544e-19    268.53 0 
   263.89 8.0825e-19    272.27 0 
   268.80 8.5025e-19    277.33 0 
   273.80 8.9032e-19    282.49 0 
   278.89 9.2799e-19    287.74 0 
   284.07 9.7397e-19    293.09 0 
   290.02 9.8072e-19    299.23 0 
   296.09 1.0436e-18    305.49 0 
   300.90 1.0436e-18    310.46 0 
   307.91 1.1260e-18    317.69 0 
   318.00 1.2404e-18    328.10 0 
   327.66 1.3199e-18    338.06 0 
   337.62 1.3853e-18    348.34 0 
   347.88 1.4439e-18    358.92 0 
   356.80 1.5155e-18    368.13 0 
   365.95 1.6053e-18    377.57 0 
   375.34 1.6540e-18    387.26 0 
   384.97 1.6540e-18    397.19 0 
   394.84 1.7723e-18    407.38 0 
   404.97 1.8516e-18    417.83 0 
   414.41 1.8904e-18    427.56 0 
   422.11 1.9123e-18    435.51 0 
   429.96 1.9299e-18    443.61 0 
   440.99 2.0070e-18    454.99 0 
   451.26 2.0396e-18    465.59 0 
   459.65 2.0537e-18    474.24 0 
   470.36 2.0919e-18    485.29 0 
   480.20 2.1555e-18    495.45 0 
   490.26 2.1555e-18    505.82 0 
   500.53 2.2467e-18    516.42 0 
   506.32 2.6215e-18    522.40 0 
   512.18 5.2789e-18    528.45 0 
   520.51 5.4519e-18    537.03 0 
   530.18 5.6695e-18    547.02 0 
   540.04 5.4770e-18    557.19 0 
   550.08 7.1870e-18    567.54 0 
   560.31 8.5221e-18    578.10 0 
   569.41 9.5619e-18    587.49 0 
   580.00 9.2586e-18    598.41 0 
   589.42 1.1157e-17    608.13 0 
   600.38 1.1417e-17    619.44 0 
   610.14 1.3383e-17    629.51 0 
   620.05 1.5543e-17    639.73 0 
   630.12 1.6770e-17    650.13 0 
   640.36 1.7240e-17    660.69 0 
   649.27 1.9523e-17    669.88 0 
   658.30 2.0680e-17    679.20 0 
   664.39 2.2159e-17    685.49 0 
   675.19 2.2832e-17    696.63 0 
   684.58 2.2675e-17    706.32 0 
   695.71 2.8810e-17    717.79 0 
   705.38 2.7513e-17    727.78 0 
   715.20 3.3539e-17    737.90 0 
   726.82 3.5119e-17    749.89 0 
   735.23 3.6605e-17    758.58 0 
   745.46 4.1167e-17    769.13 0 
   755.83 4.4009e-17    779.83 0 
   764.59 4.6725e-17    788.86 0 
   775.22 5.1115e-17    799.83 0 
   784.20 5.5405e-17    809.10 0 
   795.11 5.8016e-17    820.35 0 
   804.31 6.0750e-17    829.85 0 
   815.50 6.3175e-17    841.40 0 
   824.95 6.9430e-17    851.14 0 
   834.50 5.9230e-17    860.99 0 
   844.16 7.4053e-17    870.96 0 
   855.91 7.7010e-17    883.08 0 
   865.82 8.2898e-17    893.31 0 
   875.84 8.8827e-17    903.65 0 
   885.98 9.6504e-17    914.11 0 
   894.18 1.0199e-16    922.57 0 
   904.54 1.0341e-16    933.25 0 
   915.01 1.5979e-16    944.06 0 
   925.61 1.0853e-15    954.99 0 
   934.17 2.4018e-15    963.83 0 
   944.99 4.6832e-15    974.99 0 
   955.93 6.5848e-15    986.28 0 
   964.77 7.7722e-15    995.41 0 
   975.95 1.4406e-15   1006.93 0 
   984.98 7.4053e-15   1016.25 0 
   994.09 7.5430e-15   1025.65 0 
  1005.60 1.0269e-14   1037.53 0 
  1014.91 9.5619e-15   1047.13 0 
  1024.30 3.9314e-15   1056.82 0 
  1036.16 7.0234e-15   1069.05 0 
  1045.75 1.2899e-14   1078.95 0 
  1055.42 1.2810e-14   1088.93 0 
  1065.19 1.0557e-14   1099.01 0 
  1075.04 1.2347e-14   1109.18 0 
  1084.99 1.0152e-14   1119.44 0 
  1095.03 1.2899e-14   1129.80 0 
  1105.16 1.2461e-14   1140.25 0 
  1115.39 1.2205e-14   1150.80 0 
  1125.71 1.1131e-14   1161.45 0 
  1136.12 1.3569e-14   1172.20 0 
  1144.00 1.2432e-14   1180.32 0 
  1154.59 1.3108e-14   1191.24 0 
  1165.27 1.3569e-14   1202.26 0 
  1176.05 9.9208e-15   1213.39 0 
  1184.20 1.3108e-14   1221.80 0 
  1195.16 9.3874e-15   1233.11 0 
  1206.22 7.0072e-15   1244.51 0 
  1214.58 4.0602e-15   1253.14 0 
  1225.82 8.7206e-15   1264.74 0 
  1234.31 1.3018e-14   1273.50 0 
  1245.74 1.4439e-14   1285.29 0 
  1254.37 1.4013e-14   1294.20 0 
  1265.98 1.2233e-14   1306.17 0 
  1274.75 1.5401e-14   1315.22 0 
  1283.59 1.6053e-14   1324.34 0 
  1295.47 1.3321e-14   1336.60 0 
  1304.45 1.3138e-14   1345.86 0 
  1313.49 1.5869e-14   1355.19 0 
  1325.64 1.5295e-14   1367.73 0 
  1334.83 1.3885e-14   1377.21 0 
  1344.08 1.6016e-14   1386.76 0 
  1356.52 1.5579e-14   1399.59 0 
  1365.92 1.4208e-14   1409.29 0 
  1375.39 1.4810e-14   1419.06 0 
  1384.92 1.5016e-14   1428.89 0 
  1394.52 1.3352e-14   1438.80 0 
  1404.19 1.3853e-14   1448.77 0 
  1413.92 1.4143e-14   1458.81 0 
  1423.72 1.4373e-14   1468.93 0 
  1433.59 1.4307e-14   1479.11 0 
  1443.53 1.5016e-14   1489.36 0 
  1446.86 1.5225e-14   1492.79 0 
  1453.54 1.4878e-14   1499.69 0 
  1463.61 1.3917e-14   1510.08 0 
  1473.76 1.3853e-14   1520.55 0 
  1483.97 1.4013e-14   1531.09 0 
  1494.26 1.4241e-14   1541.70 0 
  1504.62 1.3600e-14   1552.39 0 
  1511.56 1.2347e-14   1559.55 0 
  1518.54 1.3078e-14   1566.75 0 
  1525.55 1.2751e-14   1573.98 0 
  1536.12 1.1338e-14   1584.89 0 
  1546.77 1.2347e-14   1595.88 0 
  1553.91 1.1683e-14   1603.25 0 
  1564.68 1.1845e-14   1614.36 0 
  1575.53 1.2576e-14   1625.55 0 
  1586.45 1.3048e-14   1636.82 0 
  1593.77 1.3383e-14   1644.37 0 
  1604.82 1.3018e-14   1655.77 0 
  1615.94 1.3048e-14   1667.25 0 
  1623.40 1.2432e-14   1674.94 0 
  1634.65 1.3108e-14   1686.55 0 
  1645.99 1.3260e-14   1698.24 0 
  1653.58 1.2318e-14   1706.08 0 
  1665.04 1.3414e-14   1717.91 0 
  1672.73 1.2121e-14   1725.84 0 
  1676.59 1.3445e-14   1729.82 0 
  1684.33 1.3885e-14   1737.80 0 
  1696.00 1.3138e-14   1749.85 0 
  1703.83 1.2692e-14   1757.92 0 
  1715.64 1.2177e-14   1770.11 0 
  1723.56 1.2093e-14   1778.28 0 
  1735.51 1.2780e-14   1790.61 0 
  1743.52 1.2489e-14   1798.87 0 
  1755.60 1.3230e-14   1811.34 0 
  1763.70 1.2177e-14   1819.70 0 
  1775.93 1.2547e-14   1832.31 0 
  1784.13 1.2692e-14   1840.77 0 
  1796.49 1.3383e-14   1853.53 0 
  1804.79 1.3291e-14   1862.09 0 
  1813.12 1.2461e-14   1870.68 0 
  1825.69 1.2634e-14   1883.65 0 
  1834.11 1.2205e-14   1892.34 0 
  1846.83 1.1312e-14   1905.46 0 
  1855.35 1.1391e-14   1914.26 0 
  1863.91 1.1683e-14   1923.09 0 
  1876.83 1.2432e-14   1936.42 0 
  1885.50 1.1602e-14   1945.36 0 
  1894.20 1.1157e-14   1954.34 0 
  1902.94 1.1710e-14   1963.36 0 
  1916.13 1.1364e-14   1976.97 0 
  1924.98 1.1183e-14   1986.10 0 
  1933.86 1.1417e-14   1995.26 0 
  1942.79 1.1927e-14   2004.47 0 
  1956.26 1.1234e-14   2018.37 0 
  1965.29 1.2093e-14   2027.68 0 
  1974.36 1.2375e-14   2037.04 0 
  1983.47 1.1764e-14   2046.45 0 
  1997.22 1.1443e-14   2060.63 0 
  2006.44 1.1683e-14   2070.14 0 
  2015.70 1.1391e-14   2079.70 0 
  2025.00 1.1791e-14   2089.30 0 
  2034.35 1.1312e-14   2098.94 0 
  2043.74 1.1629e-14   2108.63 0 
  2053.17 1.1157e-14   2118.36 0 
  2062.65 1.1234e-14   2128.14 0 
  2072.17 1.1900e-14   2137.96 0 
  2076.95 1.1417e-14   2142.89 0 
  2086.54 1.1710e-14   2152.78 0 
  2096.17 1.1183e-14   2162.72 0 
  2105.84 1.1260e-14   2172.70 0 
  2115.56 1.1338e-14   2182.73 0 
  2125.33 1.1496e-14   2192.81 0 
  2135.14 1.0803e-14   2202.93 0 
  2144.99 1.1004e-14   2213.09 0 
  2154.89 1.1312e-14   2223.31 0 
  2164.84 1.1004e-14   2233.57 0 
  2174.83 1.0903e-14   2243.88 0 
  2184.87 1.0778e-14   2254.24 0 
  2194.96 1.1208e-14   2264.64 0 
  2205.09 1.0903e-14   2275.10 0 
  2215.27 1.0484e-14   2285.60 0 
  2225.49 1.0199e-14   2296.15 0 
  2235.76 1.0780e-14   2306.75 0 
  2246.08 1.0345e-14   2317.39 0 
  2256.45 1.0043e-14   2328.09 0 
  2266.87 1.0185e-14   2338.84 0 
  2277.33 1.0426e-14   2349.63 0 
  2282.58 1.0621e-14   2355.05 0 
  2293.12 1.0099e-14   2365.92 0 
  2303.70 1.0125e-14   2376.84 0 
  2314.33 9.7841e-15   2387.81 0 
  2325.02 8.1217e-15   2398.83 0 
  2335.75 9.2847e-15   2409.91 0 
  2346.53 8.9927e-15   2421.03 0 
  2357.36 9.5723e-15   2432.20 0 
  2362.79 8.9552e-15   2437.81 0 
  2373.70 9.1876e-15   2449.06 0 
  2384.66 8.6164e-15   2460.37 0 
  2395.66 9.0668e-15   2471.72 0 
  2406.72 8.7615e-15   2483.13 0 
  2412.27 8.9052e-15   2488.86 0 
  2423.40 9.2848e-15   2500.35 0 
  2434.59 8.9516e-15   2511.89 0 
  2445.83 9.3546e-15   2523.48 0 
  2457.12 9.2078e-15   2535.13 0 
  2462.78 9.1669e-15   2540.97 0 
  2474.15 8.8787e-15   2552.70 0 
  2485.57 9.1092e-15   2564.48 0 
  2497.04 8.6221e-15   2576.32 0 
  2502.80 9.3903e-15   2582.26 0 
  2514.35 8.6459e-15   2594.18 0 
  2520.15 8.8283e-15   2600.16 0 
  2525.96 8.4907e-15   2606.15 0 
  2537.62 8.5325e-15   2618.18 0 
  2543.47 8.4167e-15   2624.22 0 
  2555.21 8.8568e-15   2636.33 0 
  2567.00 8.7178e-15   2648.50 0 
  2572.92 9.0882e-15   2654.61 0 
  2584.79 9.0284e-15   2666.86 0 
  2596.72 8.9279e-15   2679.17 0 
  2602.71 8.6659e-15   2685.34 0 
  2614.72 8.5694e-15   2697.74 0 
  2626.79 8.8530e-15   2710.19 0 
  2632.85 8.9776e-15   2716.44 0 
  2645.00 9.5565e-15   2728.98 0 
  2657.21 9.6258e-15   2741.57 0 
  2663.34 9.0262e-15   2747.89 0 
  2675.63 9.3035e-15   2760.58 0 
  2687.98 9.2851e-15   2773.32 0 
  2694.18 8.9301e-15   2779.71 0 
  2706.61 9.0990e-15   2792.54 0 
  2712.85 8.7512e-15   2798.98 0 
  2725.37 8.7339e-15   2811.90 0 
  2737.95 9.0647e-15   2824.88 0 
  2744.26 8.1738e-15   2831.39 0 
  2756.93 8.2902e-15   2844.46 0 
  2763.29 8.5043e-15   2851.02 0 
  2776.04 8.8061e-15   2864.18 0 
  2782.44 8.4890e-15   2870.78 0 
  2795.28 7.1450e-15   2884.03 0 
  2808.19 7.5709e-15   2897.34 0 
  2814.66 8.7341e-15   2904.02 0 
  2827.65 8.9406e-15   2917.43 0 
  2834.17 8.6585e-15   2924.15 0 
  2847.25 8.4838e-15   2937.65 0 
  2853.82 8.3112e-15   2944.42 0 
  2866.99 8.7864e-15   2958.01 0 
  2873.60 8.7476e-15   2964.83 0 
  2886.86 8.7506e-15   2978.52 0 
  2893.52 8.6918e-15   2985.38 0 
  2906.87 9.1678e-15   2999.16 0 
  2927.02 8.9021e-15   3019.95 0 
  2947.31 8.7643e-15   3040.89 0 
  2967.74 8.8298e-15   3061.96 0 
  2988.31 8.8142e-15   3083.19 0 
  3009.03 8.8596e-15   3104.56 0 
  3029.88 8.8440e-15   3126.08 0 
  3050.89 8.8082e-15   3147.75 0 
  3072.03 8.7927e-15   3169.57 0 
  3093.33 8.7976e-15   3191.54 0 
  3107.61 8.7604e-15   3206.27 0 
  3129.15 8.6450e-15   3228.49 0 
  3150.84 8.6498e-15   3250.87 0 
  3172.68 8.6348e-15   3273.41 0 
  3187.32 8.3256e-15   3288.52 0 
  3209.42 8.4852e-15   3311.31 0 
  3231.66 8.2397e-15   3334.26 0 
  3246.58 8.5130e-15   3349.66 0 
  3269.08 8.6563e-15   3372.87 0 
  3291.74 8.6017e-15   3396.25 0 
  3306.94 8.5655e-15   3411.93 0 
  3322.20 8.5099e-15   3427.68 0 
  3329.86 8.6499e-15   3435.58 0 
  3337.54 8.5723e-15   3443.50 0 
  3345.23 8.4564e-15   3451.44 0 
  3352.94 8.3420e-15   3459.39 0 
  3360.67 8.4015e-15   3467.37 0 
  3368.42 8.4031e-15   3475.36 0 
  3376.18 7.8800e-15   3483.37 0 
  3383.97 8.0838e-15   3491.40 0 
  3391.77 8.5055e-15   3499.45 0 
  3399.59 8.7054e-15   3507.52 0 
  3407.42 8.1635e-15   3515.60 0 
  3415.28 8.3746e-15   3523.71 0 
  3423.15 8.6906e-15   3531.83 0 
  3431.04 8.6924e-15   3539.97 0 
  3438.95 8.5749e-15   3548.13 0 
  3446.88 8.0042e-15   3556.31 0 
  3454.82 8.4218e-15   3564.51 0 
  3462.79 7.9340e-15   3572.73 0 
  3470.77 8.1956e-15   3580.96 0 
  3478.77 7.8284e-15   3589.22 0 
  3486.79 8.1425e-15   3597.49 0 
  3494.83 8.0695e-15   3605.79 0 
  3502.89 8.3165e-15   3614.10 0 
  3510.96 8.1101e-15   3622.43 0 
  3519.05 8.1869e-15   3630.78 0 
  3527.17 7.9654e-15   3639.15 0 
  3535.30 8.2471e-15   3647.54 0 
  3543.45 8.5387e-15   3655.95 0 
  3551.61 8.4816e-15   3664.37 0 
  3559.80 8.3863e-15   3672.82 0 
  3568.01 8.3112e-15   3681.29 0 
  3575.97 6.2414e-15   3689.50 1 
  3578.63 7.5232e-15   3692.25 1 
  3581.30 9.3069e-15   3695.00 1 
  3583.96 8.5379e-15   3697.75 1 
  3586.63 7.6038e-15   3700.50 1 
  3589.29 7.7308e-15   3703.25 1 
  3591.96 8.0752e-15   3706.00 1 
  3594.62 8.0413e-15   3708.75 1 
  3597.29 7.9534e-15   3711.50 1 
  3599.96 7.5689e-15   3714.25 1 
  3602.62 7.3869e-15   3717.00 1 
  3605.29 7.6626e-15   3719.75 1 
  3607.95 8.2207e-15   3722.50 1 
  3610.62 9.1496e-15   3725.25 1 
  3613.28 8.2956e-15   3728.00 1 
  3615.95 7.8922e-15   3730.75 1 
  3618.61 8.3436e-15   3733.50 1 
  3621.28 8.2875e-15   3736.25 1 
  3623.94 9.0760e-15   3739.00 1 
  3626.61 8.3320e-15   3741.75 1 
  3629.27 7.2700e-15   3744.50 1 
  3631.94 7.1544e-15   3747.25 1 
  3634.60 7.9194e-15   3750.00 1 
  3637.27 8.5769e-15   3752.75 1 
  3639.94 8.8545e-15   3755.50 1 
  3642.60 7.8955e-15   3758.25 1 
  3645.27 8.8475e-15   3761.00 1 
  3647.93 8.8052e-15   3763.75 1 
  3650.60 8.0928e-15   3766.50 1 
  3653.26 8.4961e-15   3769.25 1 
  3655.93 8.1840e-15   3772.00 1 
  3658.59 9.0681e-15   3774.75 1 
  3661.26 8.5925e-15   3777.50 1 
  3663.92 9.1472e-15   3780.25 1 
  3666.59 8.3616e-15   3783.00 1 
  3669.25 8.5607e-15   3785.75 1 
  3671.92 7.9427e-15   3788.50 1 
  3674.59 7.7995e-15   3791.25 1 
  3677.25 7.9836e-15   3794.00 1 
  3679.92 7.8672e-15   3796.75 1 
  3682.58 7.8575e-15   3799.50 1 
  3685.25 7.5655e-15   3802.25 1 
  3687.91 7.6277e-15   3805.00 1 
  3690.58 8.0879e-15   3807.75 1 
  3693.24 8.2917e-15   3810.50 1 
  3695.91 7.8402e-15   3813.25 1 
  3698.57 8.1355e-15   3816.00 1 
  3701.24 8.3349e-15   3818.75 1 
  3703.90 8.5071e-15   3821.50 1 
  3706.57 8.4077e-15   3824.25 1 
  3709.24 8.7506e-15   3827.00 1 
  3711.90 8.7352e-15   3829.75 1 
  3714.57 9.0330e-15   3832.50 1 
  3717.23 9.7229e-15   3835.25 1 
  3719.90 1.1662e-14   3838.00 1 
  3722.56 1.8390e-14   3840.75 1 
  3725.23 2.6953e-14   3843.50 1 
  3727.89 3.0119e-14   3846.25 1 
  3730.56 2.6103e-14   3849.00 1 
  3733.22 1.8208e-14   3851.75 1 
  3735.89 1.0944e-14   3854.50 1 
  3738.55 9.3974e-15   3857.25 1 
  3741.22 9.1804e-15   3860.00 1 
  3743.89 9.2939e-15   3862.75 1 
  3746.55 9.3338e-15   3865.50 1 
  3749.22 8.7782e-15   3868.25 1 
  3751.88 8.7699e-15   3871.00 1 
  3754.55 1.0163e-14   3873.75 1 
  3757.21 1.0222e-14   3876.50 1 
  3759.88 1.0522e-14   3879.25 1 
  3762.54 1.0570e-14   3882.00 1 
  3765.21 1.0075e-14   3884.75 1 
  3767.87 1.0207e-14   3887.50 1 
  3770.54 9.0684e-15   3890.25 1 
  3773.20 9.0963e-15   3893.00 1 
  3775.87 1.0062e-14   3895.75 1 
  3778.54 1.0941e-14   3898.50 1 
  3781.20 1.2031e-14   3901.25 1 
  3783.87 1.2744e-14   3904.00 1 
  3786.53 1.1480e-14   3906.75 1 
  3789.20 1.2269e-14   3909.50 1 
  3791.86 1.1010e-14   3912.25 1 
  3794.53 1.0357e-14   3915.00 1 
  3797.19 8.9039e-15   3917.75 1 
  3799.86 9.3570e-15   3920.50 1 
  3802.52 9.3491e-15   3923.25 1 
  3805.19 1.1570e-14   3926.00 1 
  3807.85 1.2365e-14   3928.75 1 
  3810.52 1.2029e-14   3931.50 1 
  3813.19 1.2090e-14   3934.25 1 
  3815.85 1.3233e-14   3937.00 1 
  3818.52 1.2341e-14   3939.75 1 
  3821.18 1.3231e-14   3942.50 1 
  3823.85 1.1055e-14   3945.25 1 
  3826.51 1.1271e-14   3948.00 1 
  3829.18 9.8559e-15   3950.75 1 
  3831.84 9.2620e-15   3953.50 1 
  3834.51 8.7323e-15   3956.25 1 
  3837.17 9.3310e-15   3959.00 1 
  3839.84 9.2595e-15   3961.75 1 
  3842.50 9.6222e-15   3964.50 1 
  3845.17 1.0238e-14   3967.25 1 
  3847.84 1.2165e-14   3970.00 1 
  3850.50 1.2796e-14   3972.75 1 
  3853.17 1.3196e-14   3975.50 1 
  3855.83 1.3261e-14   3978.25 1 
  3858.50 1.4000e-14   3981.00 1 
  3861.16 1.4222e-14   3983.75 1 
  3863.83 1.3929e-14   3986.50 1 
  3866.49 1.3857e-14   3989.25 1 
  3869.16 1.4127e-14   3992.00 1 
  3871.82 1.3921e-14   3994.75 1 
  3874.49 1.3058e-14   3997.50 1 
  3877.15 1.2264e-14   4000.25 1 
  3879.82 1.2172e-14   4003.00 1 
  3882.48 1.0704e-14   4005.75 1 
  3885.15 1.0538e-14   4008.50 1 
  3887.82 9.5271e-15   4011.25 1 
  3890.48 9.9145e-15   4014.00 1 
  3893.15 1.0040e-14   4016.75 1 
  3895.81 1.0413e-14   4019.50 1 
  3898.48 1.2248e-14   4022.25 1 
  3901.14 1.2841e-14   4025.00 1 
  3903.81 1.2906e-14   4027.75 1 
  3906.47 1.2888e-14   4030.50 1 
  3909.14 1.3148e-14   4033.25 1 
  3911.80 1.3033e-14   4036.00 1 
  3914.47 1.3960e-14   4038.75 1 
  3917.13 1.4226e-14   4041.50 1 
  3919.80 1.3339e-14   4044.25 1 
  3922.47 1.4355e-14   4047.00 1 
  3925.13 1.3061e-14   4049.75 1 
  3927.80 1.2282e-14   4052.50 1 
  3930.46 1.2506e-14   4055.25 1 
  3933.13 1.0663e-14   4058.00 1 
  3935.79 1.1297e-14   4060.75 1 
  3938.46 1.3325e-14   4063.50 1 
  3941.12 1.2644e-14   4066.25 1 
  3943.79 1.3543e-14   4069.00 1 
  3946.45 1.3890e-14   4071.75 1 
  3949.12 1.3075e-14   4074.50 1 
  3951.78 1.3442e-14   4077.25 1 
  3954.45 1.2993e-14   4080.00 1 
  3957.12 1.3126e-14   4082.75 1 
  3959.78 1.2662e-14   4085.50 1 
  3962.45 1.0262e-14   4088.25 1 
  3965.11 9.2333e-15   4091.00 1 
  3967.78 8.8344e-15   4093.75 1 
  3970.44 9.1459e-15   4096.50 1 
  3973.11 1.0192e-14   4099.25 1 
  3975.77 1.0455e-14   4102.00 1 
  3978.44 1.0950e-14   4104.75 1 
  3981.10 1.1844e-14   4107.50 1 
  3983.77 1.2970e-14   4110.25 1 
  3986.43 1.2905e-14   4113.00 1 
  3989.10 1.4255e-14   4115.75 1 
  3991.77 1.4062e-14   4118.50 1 
  3994.43 1.5119e-14   4121.25 1 
  3997.10 1.4056e-14   4124.00 1 
  3999.76 1.3701e-14   4126.75 1 
  4002.43 1.4458e-14   4129.50 1 
  4005.09 1.3884e-14   4132.25 1 
  4007.76 1.3565e-14   4135.00 1 
  4010.42 1.4307e-14   4137.75 1 
  4013.09 1.3601e-14   4140.50 1 
  4015.75 1.3926e-14   4143.25 1 
  4018.42 1.4324e-14   4146.00 1 
  4021.08 1.4015e-14   4148.75 1 
  4023.75 1.4319e-14   4151.50 1 
  4026.42 1.4632e-14   4154.25 1 
  4029.08 1.4175e-14   4157.00 1 
  4031.75 1.4320e-14   4159.75 1 
  4034.41 1.4191e-14   4162.50 1 
  4037.08 1.5486e-14   4165.25 1 
  4039.74 1.4824e-14   4168.00 1 
  4042.41 1.4399e-14   4170.75 1 
  4045.07 1.4552e-14   4173.50 1 
  4047.74 1.4502e-14   4176.25 1 
  4050.40 1.4001e-14   4179.00 1 
  4053.07 1.4838e-14   4181.75 1 
  4055.73 1.4509e-14   4184.50 1 
  4058.40 1.4570e-14   4187.25 1 
  4061.07 1.3874e-14   4190.00 1 
  4063.73 1.4070e-14   4192.75 1 
  4066.40 1.3635e-14   4195.50 1 
  4069.06 1.3992e-14   4198.25 1 
  4071.73 1.3812e-14   4201.00 1 
  4074.39 1.3025e-14   4203.75 1 
  4077.06 1.3225e-14   4206.50 1 
  4079.72 1.3501e-14   4209.25 1 
  4082.39 1.2713e-14   4212.00 1 
  4085.05 1.2952e-14   4214.75 1 
  4087.72 1.2968e-14   4217.50 1 
  4090.38 1.1601e-14   4220.25 1 
  4093.05 1.1399e-14   4223.00 1 
  4095.72 1.1341e-14   4225.75 1 
  4098.38 1.0546e-14   4228.50 1 
  4101.05 1.1104e-14   4231.25 1 
  4103.71 1.1248e-14   4234.00 1 
  4106.38 1.0339e-14   4236.75 1 
  4109.04 1.0544e-14   4239.50 1 
  4111.71 1.1307e-14   4242.25 1 
  4114.37 1.1779e-14   4245.00 1 
  4117.04 1.2200e-14   4247.75 1 
  4119.70 1.2909e-14   4250.50 1 
  4122.37 1.2945e-14   4253.25 1 
  4125.03 1.2686e-14   4256.00 1 
  4127.70 1.3132e-14   4258.75 1 
  4130.37 1.3081e-14   4261.50 1 
  4133.03 1.3146e-14   4264.25 1 
  4135.70 1.3256e-14   4267.00 1 
  4138.36 1.3479e-14   4269.75 1 
  4141.03 1.3385e-14   4272.50 1 
  4143.69 1.3130e-14   4275.25 1 
  4146.36 1.3826e-14   4278.00 1 
  4149.02 1.4022e-14   4280.75 1 
  4151.69 1.3648e-14   4283.50 1 
  4154.35 1.3230e-14   4286.25 1 
  4157.02 1.3538e-14   4289.00 1 
  4159.68 1.3603e-14   4291.75 1 
  4162.35 1.3891e-14   4294.50 1 
  4165.01 1.3639e-14   4297.25 1 
  4167.68 1.3218e-14   4300.00 1 
  4170.35 1.3213e-14   4302.75 1 
  4173.01 1.3496e-14   4305.50 1 
  4175.68 1.3786e-14   4308.25 1 
  4178.34 1.3665e-14   4311.00 1 
  4181.01 1.3269e-14   4313.75 1 
  4183.67 1.3113e-14   4316.50 1 
  4186.34 1.3529e-14   4319.25 1 
  4189.00 1.3684e-14   4322.00 1 
  4191.67 1.3516e-14   4324.75 1 
  4194.33 1.3706e-14   4327.50 1 
  4197.00 1.3717e-14   4330.25 1 
  4199.66 1.3513e-14   4333.00 1 
  4202.33 1.3190e-14   4335.75 1 
  4205.00 1.3109e-14   4338.50 1 
  4207.66 1.3697e-14   4341.25 1 
  4210.33 1.4324e-14   4344.00 1 
  4212.99 1.3890e-14   4346.75 1 
  4215.66 1.3652e-14   4349.50 1 
  4218.32 1.3662e-14   4352.25 1 
  4220.99 1.3547e-14   4355.00 1 
  4223.65 1.3523e-14   4357.75 1 
  4226.32 1.3635e-14   4360.50 1 
  4228.98 1.3534e-14   4363.25 1 
  4231.65 1.3148e-14   4366.00 1 
  4234.31 1.3441e-14   4368.75 1 
  4236.98 1.3758e-14   4371.50 1 
  4239.65 1.3693e-14   4374.25 1 
  4242.31 1.3637e-14   4377.00 1 
  4244.98 1.3239e-14   4379.75 1 
  4247.64 1.3349e-14   4382.50 1 
  4250.31 1.3408e-14   4385.25 1 
  4252.97 1.3273e-14   4388.00 1 
  4255.64 1.3367e-14   4390.75 1 
  4258.30 1.3337e-14   4393.50 1 
  4260.97 1.3583e-14   4396.25 1 
  4263.63 1.3577e-14   4399.00 1 
  4266.30 1.3486e-14   4401.75 1 
  4268.96 1.3024e-14   4404.50 1 
  4271.63 1.2806e-14   4407.25 1 
  4274.30 1.2982e-14   4410.00 1 
  4276.96 1.3306e-14   4412.75 1 
  4279.63 1.3548e-14   4415.50 1 
  4282.29 1.2840e-14   4418.25 1 
  4284.96 1.2808e-14   4421.00 1 
  4287.62 1.3196e-14   4423.75 1 
  4290.29 1.3151e-14   4426.50 1 
  4292.95 1.3088e-14   4429.25 1 
  4295.62 1.2873e-14   4432.00 1 
  4298.28 1.1840e-14   4434.75 1 
  4300.95 1.1726e-14   4437.50 1 
  4303.61 1.1979e-14   4440.25 1 
  4306.28 1.2121e-14   4443.00 1 
  4308.95 1.1853e-14   4445.75 1 
  4311.61 1.1686e-14   4448.50 1 
  4314.28 1.2417e-14   4451.25 1 
  4316.94 1.2549e-14   4454.00 1 
  4319.61 1.2196e-14   4456.75 1 
  4322.27 1.2226e-14   4459.50 1 
  4324.94 1.1960e-14   4462.25 1 
  4327.60 1.1388e-14   4465.00 1 
  4330.27 1.1502e-14   4467.75 1 
  4332.93 1.0899e-14   4470.50 1 
  4335.60 1.1768e-14   4473.25 1 
  4338.26 1.2608e-14   4476.00 1 
  4340.93 1.3111e-14   4478.75 1 
  4343.60 1.2081e-14   4481.50 1 
  4346.26 1.0995e-14   4484.25 1 
  4348.93 1.1312e-14   4487.00 1 
  4351.59 1.0859e-14   4489.75 1 
  4354.26 1.1368e-14   4492.50 1 
  4356.92 1.2133e-14   4495.25 1 
  4359.59 1.2239e-14   4498.00 1 
  4362.25 1.2689e-14   4500.75 1 
  4364.92 1.3357e-14   4503.50 1 
  4367.58 1.3348e-14   4506.25 1 
  4370.25 1.2775e-14   4509.00 1 
  4372.91 1.2546e-14   4511.75 1 
  4375.58 1.2030e-14   4514.50 1 
  4378.25 1.2433e-14   4517.25 1 
  4380.91 1.2628e-14   4520.00 1 
  4383.58 1.2448e-14   4522.75 1 
  4386.24 1.2225e-14   4525.50 1 
  4388.91 1.1782e-14   4528.25 1 
  4391.57 1.2653e-14   4531.00 1 
  4394.24 1.3109e-14   4533.75 1 
  4396.90 1.2656e-14   4536.50 1 
  4399.57 1.2658e-14   4539.25 1 
  4402.23 1.2600e-14   4542.00 1 
  4404.90 1.2218e-14   4544.75 1 
  4407.56 1.2581e-14   4547.50 1 
  4410.23 1.3013e-14   4550.25 1 
  4412.89 1.2747e-14   4553.00 1 
  4415.56 1.2811e-14   4555.75 1 
  4418.23 1.2873e-14   4558.50 1 
  4420.89 1.2521e-14   4561.25 1 
  4423.56 1.2682e-14   4564.00 1 
  4426.22 1.2553e-14   4566.75 1 
  4428.89 1.2597e-14   4569.50 1 
  4431.55 1.2131e-14   4572.25 1 
  4434.22 1.2001e-14   4575.00 1 
  4436.88 1.2496e-14   4577.75 1 
  4439.55 1.3000e-14   4580.50 1 
  4442.21 1.2887e-14   4583.25 1 
  4444.88 1.3294e-14   4586.00 1 
  4447.54 1.2866e-14   4588.75 1 
  4450.21 1.2831e-14   4591.50 1 
  4452.88 1.2958e-14   4594.25 1 
  4455.54 1.2884e-14   4597.00 1 
  4458.21 1.2722e-14   4599.75 1 
  4460.87 1.2254e-14   4602.50 1 
  4463.54 1.2150e-14   4605.25 1 
  4466.20 1.2940e-14   4608.00 1 
  4468.87 1.3120e-14   4610.75 1 
  4471.53 1.2643e-14   4613.50 1 
  4474.20 1.2999e-14   4616.25 1 
  4476.86 1.3044e-14   4619.00 1 
  4479.53 1.2660e-14   4621.75 1 
  4482.19 1.3198e-14   4624.50 1 
  4484.86 1.2576e-14   4627.25 1 
  4487.53 1.2640e-14   4630.00 1 
  4490.19 1.2748e-14   4632.75 1 
  4492.86 1.2913e-14   4635.50 1 
  4495.52 1.2592e-14   4638.25 1 
  4498.19 1.3215e-14   4641.00 1 
  4500.85 1.2624e-14   4643.75 1 
  4503.52 1.3142e-14   4646.50 1 
  4506.18 1.3165e-14   4649.25 1 
  4508.85 1.3068e-14   4652.00 1 
  4511.51 1.2913e-14   4654.75 1 
  4514.18 1.2590e-14   4657.50 1 
  4516.84 1.2356e-14   4660.25 1 
  4519.51 1.2766e-14   4663.00 1 
  4522.18 1.2822e-14   4665.75 1 
  4524.84 1.2369e-14   4668.50 1 
  4527.51 1.3027e-14   4671.25 1 
  4530.17 1.2472e-14   4674.00 1 
  4532.84 1.2016e-14   4676.75 1 
  4535.50 1.2530e-14   4679.50 1 
  4538.17 1.2497e-14   4682.25 1 
  4540.83 1.2600e-14   4685.00 1 
  4543.50 1.2473e-14   4687.75 1 
  4546.16 1.2343e-14   4690.50 1 
  4548.83 1.2315e-14   4693.25 1 
  4551.49 1.2444e-14   4696.00 1 
  4554.16 1.1722e-14   4698.75 1 
  4556.83 1.1925e-14   4701.50 1 
  4559.49 1.1977e-14   4704.25 1 
  4562.16 1.2651e-14   4707.00 1 
  4564.82 1.2484e-14   4709.75 1 
  4567.49 1.1909e-14   4712.50 1 
  4570.15 1.2653e-14   4715.25 1 
  4572.82 1.2432e-14   4718.00 1 
  4575.48 1.2240e-14   4720.75 1 
  4578.15 1.2189e-14   4723.50 1 
  4580.81 1.2797e-14   4726.25 1 
  4583.48 1.2312e-14   4729.00 1 
  4586.14 1.2369e-14   4731.75 1 
  4588.81 1.2761e-14   4734.50 1 
  4591.48 1.2621e-14   4737.25 1 
  4594.14 1.2922e-14   4740.00 1 
  4596.81 1.3462e-14   4742.75 1 
  4599.47 1.2790e-14   4745.50 1 
  4602.14 1.2399e-14   4748.25 1 
  4604.80 1.2200e-14   4751.00 1 
  4607.47 1.2620e-14   4753.75 1 
  4610.13 1.2774e-14   4756.50 1 
  4612.80 1.2565e-14   4759.25 1 
  4615.46 1.2852e-14   4762.00 1 
  4618.13 1.2160e-14   4764.75 1 
  4620.79 1.2206e-14   4767.50 1 
  4623.46 1.2763e-14   4770.25 1 
  4626.13 1.2434e-14   4773.00 1 
  4628.79 1.2186e-14   4775.75 1 
  4631.46 1.1916e-14   4778.50 1 
  4634.12 1.1859e-14   4781.25 1 
  4636.79 1.2378e-14   4784.00 1 
  4639.45 1.2686e-14   4786.75 1 
  4642.12 1.2407e-14   4789.50 1 
  4644.78 1.2379e-14   4792.25 1 
  4647.45 1.2109e-14   4795.00 1 
  4650.11 1.2362e-14   4797.75 1 
  4652.78 1.2610e-14   4800.50 1 
  4655.44 1.2178e-14   4803.25 1 
  4658.11 1.2440e-14   4806.00 1 
  4660.78 1.2891e-14   4808.75 1 
  4663.44 1.2303e-14   4811.50 1 
  4666.11 1.2557e-14   4814.25 1 
  4668.77 1.2404e-14   4817.00 1 
  4671.44 1.2229e-14   4819.75 1 
  4674.10 1.2767e-14   4822.50 1 
  4676.77 1.2751e-14   4825.25 1 
  4679.43 1.2775e-14   4828.00 1 
  4682.10 1.2679e-14   4830.75 1 
  4684.76 1.2708e-14   4833.50 1 
  4687.43 1.2535e-14   4836.25 1 
  4690.09 1.2369e-14   4839.00 1 
  4692.76 1.2362e-14   4841.75 1 
  4695.42 1.2716e-14   4844.50 1 
  4698.09 1.2393e-14   4847.25 1 
  4700.76 1.2661e-14   4850.00 1 
  4703.42 1.2572e-14   4852.75 1 
  4706.09 1.2444e-14   4855.50 1 
  4708.75 1.2978e-14   4858.25 1 
  4711.42 1.2782e-14   4861.00 1 
  4714.08 1.2285e-14   4863.75 1 
  4716.75 1.2443e-14   4866.50 1 
  4719.41 1.2672e-14   4869.25 1 
  4722.08 1.2690e-14   4872.00 1 
  4724.74 1.2870e-14   4874.75 1 
  4727.41 1.2582e-14   4877.50 1 
  4730.07 1.2604e-14   4880.25 1 
  4732.74 1.2462e-14   4883.00 1 
  4735.41 1.1960e-14   4885.75 1 
  4738.07 1.2328e-14   4888.50 1 
  4740.74 1.2770e-14   4891.25 1 
  4743.40 1.2455e-14   4894.00 1 
  4746.07 1.1691e-14   4896.75 1 
  4748.73 1.2115e-14   4899.50 1 
  4751.40 1.2035e-14   4902.25 1 
  4754.06 1.2453e-14   4905.00 1 
  4756.73 1.2383e-14   4907.75 1 
  4759.39 1.2203e-14   4910.50 1 
  4762.06 1.1917e-14   4913.25 1 
  4764.72 1.1910e-14   4916.00 1 
  4767.39 1.1823e-14   4918.75 1 
  4770.06 1.1943e-14   4921.50 1 
  4772.72 1.2065e-14   4924.25 1 
  4775.39 1.1819e-14   4927.00 1 
  4778.05 1.2238e-14   4929.75 1 
  4780.72 1.2341e-14   4932.50 1 
  4783.38 1.2159e-14   4935.25 1 
  4786.05 1.1716e-14   4938.00 1 
  4788.71 1.1914e-14   4940.75 1 
  4791.38 1.2108e-14   4943.50 1 
  4794.04 1.1915e-14   4946.25 1 
  4796.71 1.1726e-14   4949.00 1 
  4799.37 1.1823e-14   4951.75 1 
  4802.04 1.1685e-14   4954.50 1 
  4804.71 1.1352e-14   4957.25 1 
  4807.37 1.1723e-14   4960.00 1 
  4810.04 1.1668e-14   4962.75 1 
  4812.70 1.1600e-14   4965.50 1 
  4815.37 1.1699e-14   4968.25 1 
  4818.03 1.1710e-14   4971.00 1 
  4820.70 1.1605e-14   4973.75 1 
  4823.36 1.1468e-14   4976.50 1 
  4826.03 1.1538e-14   4979.25 1 
  4828.69 1.1612e-14   4982.00 1 
  4831.36 1.1615e-14   4984.75 1 
  4834.02 1.0985e-14   4987.50 1 
  4836.69 1.1220e-14   4990.25 1 
  4839.36 1.1114e-14   4993.00 1 
  4842.02 1.0504e-14   4995.75 1 
  4844.69 1.0861e-14   4998.50 1 
  4847.35 1.1130e-14   5001.25 1 
  4850.02 1.0770e-14   5004.00 1 
  4852.68 1.0620e-14   5006.75 1 
  4855.35 1.1598e-14   5009.50 1 
  4858.01 1.4868e-14   5012.25 1 
  4860.68 1.8004e-14   5015.00 1 
  4863.34 1.7928e-14   5017.75 1 
  4866.01 1.4426e-14   5020.50 1 
  4868.67 1.1655e-14   5023.25 1 
  4871.34 1.0235e-14   5026.00 1 
  4874.01 1.0423e-14   5028.75 1 
  4876.67 1.0370e-14   5031.50 1 
  4879.34 1.0652e-14   5034.25 1 
  4882.00 1.0485e-14   5037.00 1 
  4884.67 1.0956e-14   5039.75 1 
  4887.33 1.0982e-14   5042.50 1 
  4890.00 1.1122e-14   5045.25 1 
  4892.66 1.1175e-14   5048.00 1 
  4895.33 1.1722e-14   5050.75 1 
  4897.99 1.1482e-14   5053.50 1 
  4900.66 1.1443e-14   5056.25 1 
  4903.32 1.1442e-14   5059.00 1 
  4905.99 1.1578e-14   5061.75 1 
  4908.66 1.1503e-14   5064.50 1 
  4911.32 1.1063e-14   5067.25 1 
  4913.99 1.1300e-14   5070.00 1 
  4916.65 1.1136e-14   5072.75 1 
  4919.32 1.0772e-14   5075.50 1 
  4921.98 1.0659e-14   5078.25 1 
  4924.65 1.1085e-14   5081.00 1 
  4927.31 1.1053e-14   5083.75 1 
  4929.98 1.1268e-14   5086.50 1 
  4932.64 1.1710e-14   5089.25 1 
  4935.31 1.0972e-14   5092.00 1 
  4937.97 1.0962e-14   5094.75 1 
  4940.64 1.1390e-14   5097.50 1 
  4943.31 1.1216e-14   5100.25 1 
  4945.97 1.1471e-14   5103.00 1 
  4948.64 1.1819e-14   5105.75 1 
  4951.30 1.1984e-14   5108.50 1 
  4953.97 1.2419e-14   5111.25 1 
  4956.63 1.3486e-14   5114.00 1 
  4959.30 1.3995e-14   5116.75 1 
  4961.96 1.3694e-14   5119.50 1 
  4964.63 1.2771e-14   5122.25 1 
  4967.29 1.1777e-14   5125.00 1 
  4969.96 1.1036e-14   5127.75 1 
  4972.62 1.1313e-14   5130.50 1 
  4975.29 1.1419e-14   5133.25 1 
  4977.95 1.0834e-14   5136.00 1 
  4980.62 1.0792e-14   5138.75 1 
  4983.29 1.0866e-14   5141.50 1 
  4985.95 1.1427e-14   5144.25 1 
  4988.62 1.1082e-14   5147.00 1 
  4991.28 1.0876e-14   5149.75 1 
  4993.95 1.1087e-14   5152.50 1 
  4996.61 1.1114e-14   5155.25 1 
  4999.28 1.2054e-14   5158.00 1 
  5001.94 1.3929e-14   5160.75 1 
  5004.61 1.7444e-14   5163.50 1 
  5007.27 1.9367e-14   5166.25 1 
  5009.94 1.7833e-14   5169.00 1 
  5012.60 1.4675e-14   5171.75 1 
  5015.27 1.2285e-14   5174.50 1 
  5017.94 1.1194e-14   5177.25 1 
  5020.60 1.0839e-14   5180.00 1 
  5023.27 1.0450e-14   5182.75 1 
  5025.93 1.0755e-14   5185.50 1 
  5028.60 1.0963e-14   5188.25 1 
  5031.26 1.0961e-14   5191.00 1 
  5033.93 1.1081e-14   5193.75 1 
  5036.59 1.1067e-14   5196.50 1 
  5039.26 1.0431e-14   5199.25 1 
  5041.92 1.0269e-14   5202.00 1 
  5044.59 1.0548e-14   5204.75 1 
  5047.25 1.0591e-14   5207.50 1 
  5049.92 1.0899e-14   5210.25 1 
  5052.59 1.1187e-14   5213.00 1 
  5055.25 1.0798e-14   5215.75 1 
  5057.92 1.1093e-14   5218.50 1 
  5060.58 1.0872e-14   5221.25 1 
  5063.25 1.0674e-14   5224.00 1 
  5065.91 1.1204e-14   5226.75 1 
  5068.58 1.1082e-14   5229.50 1 
  5071.24 1.1016e-14   5232.25 1 
  5073.91 1.0475e-14   5235.00 1 
  5076.57 1.0635e-14   5237.75 1 
  5079.24 1.0496e-14   5240.50 1 
  5081.90 1.0570e-14   5243.25 1 
  5084.57 1.0942e-14   5246.00 1 
  5087.24 1.0771e-14   5248.75 1 
  5089.90 1.0757e-14   5251.50 1 
  5092.57 1.0938e-14   5254.25 1 
  5095.23 1.0514e-14   5257.00 1 
  5097.90 1.0623e-14   5259.75 1 
  5100.56 1.0731e-14   5262.50 1 
  5103.23 1.0681e-14   5265.25 1 
  5105.89 1.0733e-14   5268.00 1 
  5108.56 1.0821e-14   5270.75 1 
  5111.22 1.0725e-14   5273.50 1 
  5113.89 1.0525e-14   5276.25 1 
  5116.55 1.0439e-14   5279.00 1 
  5119.22 1.0928e-14   5281.75 1 
  5121.89 1.0560e-14   5284.50 1 
  5124.55 1.0569e-14   5287.25 1 
  5127.22 1.0507e-14   5290.00 1 
  5129.88 1.0450e-14   5292.75 1 
  5132.55 1.0397e-14   5295.50 1 
  5135.21 1.0873e-14   5298.25 1 
  5137.88 1.0998e-14   5301.00 1 
  5140.54 1.0422e-14   5303.75 1 
  5143.21 1.0698e-14   5306.50 1 
  5145.87 1.0502e-14   5309.25 1 
  5148.54 1.0668e-14   5312.00 1 
  5151.20 1.0608e-14   5314.75 1 
  5153.87 1.0532e-14   5317.50 1 
  5156.54 1.0543e-14   5320.25 1 
  5159.20 1.0838e-14   5323.00 1 
  5161.87 1.0419e-14   5325.75 1 
  5164.53 1.0445e-14   5328.50 1 
  5167.20 9.9391e-15   5331.25 1 
  5169.86 9.6950e-15   5334.00 1 
  5172.53 9.6506e-15   5336.75 1 
  5175.19 9.9904e-15   5339.50 1 
  5177.86 1.0071e-14   5342.25 1 
  5180.52 9.9623e-15   5345.00 1 
  5183.19 1.0289e-14   5347.75 1 
  5185.85 1.0626e-14   5350.50 1 
  5188.52 1.0376e-14   5353.25 1 
  5191.19 1.0696e-14   5356.00 1 
  5193.85 1.0680e-14   5358.75 1 
  5196.52 1.0471e-14   5361.50 1 
  5199.18 1.0579e-14   5364.25 1 
  5201.85 1.0747e-14   5367.00 1 
  5204.51 1.0775e-14   5369.75 1 
  5207.18 1.0771e-14   5372.50 1 
  5209.84 1.0617e-14   5375.25 1 
  5212.51 1.0518e-14   5378.00 1 
  5215.17 1.0277e-14   5380.75 1 
  5217.84 1.0335e-14   5383.50 1 
  5220.50 1.0205e-14   5386.25 1 
  5223.17 1.0234e-14   5389.00 1 
  5225.83 1.0149e-14   5391.75 1 
  5228.50 1.0314e-14   5394.50 1 
  5231.17 1.0286e-14   5397.25 1 
  5233.83 1.0394e-14   5400.00 1 
  5236.50 1.0137e-14   5402.75 1 
  5239.16 1.0487e-14   5405.50 1 
  5241.83 1.0646e-14   5408.25 1 
  5244.49 1.0316e-14   5411.00 1 
  5247.16 1.0437e-14   5413.75 1 
  5249.82 1.0290e-14   5416.50 1 
  5252.49 1.0580e-14   5419.25 1 
  5255.15 1.0305e-14   5422.00 1 
  5257.82 1.0309e-14   5424.75 1 
  5260.48 1.0534e-14   5427.50 1 
  5263.15 1.0006e-14   5430.25 1 
  5265.82 9.8778e-15   5433.00 1 
  5268.48 9.9291e-15   5435.75 1 
  5271.15 1.0015e-14   5438.50 1 
  5273.81 1.0025e-14   5441.25 1 
  5276.48 1.0292e-14   5444.00 1 
  5279.14 1.0212e-14   5446.75 1 
  5281.81 1.0237e-14   5449.50 1 
  5284.47 1.0802e-14   5452.25 1 
  5287.14 1.0408e-14   5455.00 1 
  5289.80 1.0463e-14   5457.75 1 
  5292.47 1.0415e-14   5460.50 1 
  5295.13 1.0325e-14   5463.25 1 
  5297.80 1.0207e-14   5466.00 1 
  5300.47 1.0413e-14   5468.75 1 
  5303.13 1.0333e-14   5471.50 1 
  5305.80 1.0556e-14   5474.25 1 
  5308.46 1.1013e-14   5477.00 1 
  5311.13 1.0857e-14   5479.75 1 
  5313.79 1.0431e-14   5482.50 1 
  5316.46 1.0261e-14   5485.25 1 
  5319.12 1.0464e-14   5488.00 1 
  5321.79 1.0511e-14   5490.75 1 
  5324.45 9.9845e-15   5493.50 1 
  5327.12 1.0222e-14   5496.25 1 
  5329.78 1.0140e-14   5499.00 1 
  5332.45 1.0821e-14   5501.75 1 
  5335.12 1.0179e-14   5504.50 1 
  5337.78 1.0278e-14   5507.25 1 
  5340.45 1.0942e-14   5510.00 1 
  5343.11 1.0469e-14   5512.75 1 
  5345.78 1.0660e-14   5515.50 1 
  5348.44 1.0003e-14   5518.25 1 
  5351.11 1.0292e-14   5521.00 1 
  5353.77 1.0589e-14   5523.75 1 
  5356.44 1.0670e-14   5526.50 1 
  5359.10 1.0332e-14   5529.25 1 
  5361.77 1.0468e-14   5532.00 1 
  5364.43 1.0743e-14   5534.75 1 
  5367.10 1.0372e-14   5537.50 1 
  5369.77 9.9235e-15   5540.25 1 
  5372.43 9.9177e-15   5543.00 1 
  5375.10 1.0124e-14   5545.75 1 
  5377.76 1.0499e-14   5548.50 1 
  5380.43 1.0176e-14   5551.25 1 
  5383.09 1.0102e-14   5554.00 1 
  5385.76 9.4275e-15   5556.75 1 
  5388.42 1.0460e-14   5559.50 1 
  5391.09 1.0221e-14   5562.25 1 
  5393.75 1.0308e-14   5565.00 1 
  5396.42 1.0294e-14   5567.75 1 
  5399.08 9.9078e-15   5570.50 1 
  5401.75 1.0315e-14   5573.25 1 
  5404.42 9.3306e-15   5576.00 1 
  5407.08 9.5190e-15   5578.75 1 
  5409.75 9.1334e-15   5581.50 1 
  5412.41 9.6688e-15   5584.25 1 
  5415.08 1.0260e-14   5587.00 1 
  5417.74 9.9008e-15   5589.75 1 
  5420.41 1.0585e-14   5592.50 1 
  5423.07 1.0339e-14   5595.25 1 
  5425.74 1.0241e-14   5598.00 1 
  5428.40 9.7569e-15   5600.75 1 
  5431.07 1.0032e-14   5603.50 1 
  5433.73 9.7622e-15   5606.25 1 
  5436.40 9.6523e-15   5609.00 1 
  5439.07 1.0262e-14   5611.75 1 
  5441.73 1.0692e-14   5614.50 1 
  5444.40 1.0265e-14   5617.25 1 
  5447.06 1.0108e-14   5620.00 1 
  5449.73 9.8477e-15   5622.75 1 
  5452.39 1.0034e-14   5625.50 1 
  5455.06 1.0249e-14   5628.25 1 
  5457.72 9.9596e-15   5631.00 1 
  5460.39 1.0040e-14   5633.75 1 
  5463.05 1.0114e-14   5636.50 1 
  5465.72 1.0113e-14   5639.25 1 
  5468.38 1.0033e-14   5642.00 1 
  5471.05 1.0393e-14   5644.75 1 
  5473.72 1.0213e-14   5647.50 1 
  5476.38 9.9785e-15   5650.25 1 
  5479.05 1.0196e-14   5653.00 1 
  5481.71 1.0012e-14   5655.75 1 
  5484.38 1.0409e-14   5658.50 1 
  5487.04 1.0098e-14   5661.25 1 
  5489.71 1.0286e-14   5664.00 1 
  5492.37 1.0157e-14   5666.75 1 
  5495.04 9.7962e-15   5669.50 1 
  5497.70 9.4715e-15   5672.25 1 
  5500.37 9.9735e-15   5675.00 1 
  5503.03 1.0015e-14   5677.75 1 
  5505.70 9.6328e-15   5680.50 1 
  5508.36 1.0389e-14   5683.25 1 
  5511.03 1.0269e-14   5686.00 1 
  5513.70 1.0434e-14   5688.75 1 
  5516.36 1.0585e-14   5691.50 1 
  5519.03 1.0427e-14   5694.25 1 
  5521.69 1.0538e-14   5697.00 1 
  5524.36 9.1493e-15   5699.75 1 
  5527.02 9.9638e-15   5702.50 1 
  5529.69 9.6557e-15   5705.25 1 
  5532.35 9.9581e-15   5708.00 1 
  5535.02 1.0777e-14   5710.75 1 
  5537.68 1.0057e-14   5713.50 1 
  5540.35 9.8150e-15   5716.25 1 
  5543.01 1.0262e-14   5719.00 1 
  5545.68 1.0064e-14   5721.75 1 
  5548.35 1.0206e-14   5724.50 1 
  5551.01 9.8053e-15   5727.25 1 
  5553.68 1.0125e-14   5730.00 1 
  5556.34 1.0259e-14   5732.75 1 
  5559.01 9.7790e-15   5735.50 1 
  5561.67 1.0243e-14   5738.25 1 
  5564.34 9.8473e-15   5741.00 1 
  5567.00 9.6425e-15   5743.75 1 
  5569.67 9.4876e-15   5746.50 1 
  5572.33 9.8460e-15   5749.25 1 
  5575.00 1.0190e-14   5752.00 1 
  5577.66 9.5378e-15   5754.75 1 
  5580.33 9.5931e-15   5757.50 1 
  5583.00 9.9354e-15   5760.25 1 
  5585.66 1.0044e-14   5763.00 1 
  5588.33 9.5813e-15   5765.75 1 
  5590.99 9.7934e-15   5768.50 1 
  5593.66 9.3675e-15   5771.25 1 
  5596.32 9.4881e-15   5774.00 1 
  5598.99 9.6953e-15   5776.75 1 
  5601.65 9.7843e-15   5779.50 1 
  5604.32 9.5877e-15   5782.25 1 
  5606.98 9.6767e-15   5785.00 1 
  5609.65 9.5303e-15   5787.75 1 
  5612.31 9.9143e-15   5790.50 1 
  5614.98 1.0164e-14   5793.25 1 
  5617.65 9.5434e-15   5796.00 1 
  5620.31 9.6145e-15   5798.75 1 
  5622.98 9.7335e-15   5801.50 1 
  5625.64 1.0220e-14   5804.25 1 
  5628.31 9.9188e-15   5807.00 1 
  5630.97 1.0164e-14   5809.75 1 
  5633.64 1.0119e-14   5812.50 1 
  5636.30 9.9960e-15   5815.25 1 
  5638.97 9.9288e-15   5818.00 1 
  5641.63 9.8197e-15   5820.75 1 
  5644.30 9.4101e-15   5823.50 1 
  5646.96 9.5846e-15   5826.25 1 
  5649.63 9.6771e-15   5829.00 1 
  5652.30 9.9981e-15   5831.75 1 
  5654.96 9.8648e-15   5834.50 1 
  5657.63 9.4390e-15   5837.25 1 
  5660.29 9.3043e-15   5840.00 1 
  5662.96 1.0029e-14   5842.75 1 
  5665.62 9.6130e-15   5845.50 1 
  5668.29 9.4497e-15   5848.25 1 
  5670.95 9.4487e-15   5851.00 1 
  5673.62 9.6598e-15   5853.75 1 
  5676.28 1.0005e-14   5856.50 1 
  5678.95 1.0067e-14   5859.25 1 
  5681.61 9.4631e-15   5862.00 1 
  5684.28 9.6331e-15   5864.75 1 
  5686.95 9.5883e-15   5867.50 1 
  5689.61 9.9736e-15   5870.25 1 
  5692.28 9.4359e-15   5873.00 1 
  5694.94 9.8815e-15   5875.75 1 
  5697.61 9.4082e-15   5878.50 1 
  5700.27 9.6506e-15   5881.25 1 
  5702.94 9.3835e-15   5884.00 1 
  5705.60 9.2467e-15   5886.75 1 
  5708.27 9.5844e-15   5889.50 1 
  5710.93 9.3230e-15   5892.25 1 
  5713.60 8.9693e-15   5895.00 1 
  5716.26 9.6126e-15   5897.75 1 
  5718.93 9.6891e-15   5900.50 1 
  5721.60 9.0655e-15   5903.25 1 
  5724.26 9.4529e-15   5906.00 1 
  5726.93 9.2356e-15   5908.75 1 
  5729.59 9.6685e-15   5911.50 1 
  5732.26 9.6625e-15   5914.25 1 
  5734.92 9.9830e-15   5917.00 1 
  5737.59 1.0136e-14   5919.75 1 
  5740.25 1.0571e-14   5922.50 1 
  5742.92 1.0099e-14   5925.25 1 
  5745.58 9.6696e-15   5928.00 1 
  5748.25 9.7693e-15   5930.75 1 
  5750.91 9.4929e-15   5933.50 1 
  5753.58 9.8534e-15   5936.25 1 
  5756.24 9.8192e-15   5939.00 1 
  5758.91 9.5179e-15   5941.75 1 
  5761.58 9.2008e-15   5944.50 1 
  5764.24 9.3963e-15   5947.25 1 
  5766.91 9.5097e-15   5950.00 1 
  5769.57 9.7461e-15   5952.75 1 
  5772.24 9.8500e-15   5955.50 1 
  5774.90 9.6032e-15   5958.25 1 
  5777.57 9.5135e-15   5961.00 1 
  5780.23 9.4846e-15   5963.75 1 
  5782.90 9.3757e-15   5966.50 1 
  5785.56 9.7870e-15   5969.25 1 
  5788.23 9.2658e-15   5972.00 1 
  5790.89 9.5104e-15   5974.75 1 
  5793.56 9.8243e-15   5977.50 1 
  5796.23 9.6045e-15   5980.25 1 
  5798.89 9.6978e-15   5983.00 1 
  5801.56 9.5511e-15   5985.75 1 
  5804.22 9.3314e-15   5988.50 1 
  5806.89 9.7984e-15   5991.25 1 
  5809.55 9.5677e-15   5994.00 1 
  5812.22 9.3408e-15   5996.75 1 
  5814.88 9.3340e-15   5999.50 1 
  5817.55 9.4102e-15   6002.25 1 
  5820.21 9.7982e-15   6005.00 1 
  5822.88 9.5476e-15   6007.75 1 
  5825.54 9.4712e-15   6010.50 1 
  5828.21 9.5738e-15   6013.25 1 
  5830.88 9.6232e-15   6016.00 1 
  5833.54 9.3111e-15   6018.75 1 
  5836.21 9.7010e-15   6021.50 1 
  5838.87 9.7110e-15   6024.25 1 
  5841.54 9.4048e-15   6027.00 1 
  5844.20 9.1853e-15   6029.75 1 
  5846.87 9.1217e-15   6032.50 1 
  5849.53 9.3451e-15   6035.25 1 
  5852.20 9.2022e-15   6038.00 1 
  5854.86 8.7240e-15   6040.75 1 
  5857.53 8.9627e-15   6043.50 1 
  5860.19 9.0904e-15   6046.25 1 
  5862.86 9.4596e-15   6049.00 1 
  5865.53 9.3097e-15   6051.75 1 
  5868.19 9.4715e-15   6054.50 1 
  5870.86 9.2607e-15   6057.25 1 
  5873.52 1.0413e-14   6060.00 1 
  5876.19 1.0972e-14   6062.75 1 
  5878.85 1.0474e-14   6065.50 1 
  5881.52 9.7205e-15   6068.25 1 
  5884.18 9.2498e-15   6071.00 1 
  5886.85 8.8707e-15   6073.75 1 
  5889.51 8.9731e-15   6076.50 1 
  5892.18 8.3304e-15   6079.25 1 
  5894.84 8.6985e-15   6082.00 1 
  5897.51 8.1958e-15   6084.75 1 
  5900.18 8.9640e-15   6087.50 1 
  5902.84 8.7454e-15   6090.25 1 
  5905.51 9.0611e-15   6093.00 1 
  5908.17 9.3297e-15   6095.75 1 
  5910.84 8.8017e-15   6098.50 1 
  5913.50 9.2177e-15   6101.25 1 
  5916.17 9.2608e-15   6104.00 1 
  5918.83 9.5560e-15   6106.75 1 
  5921.50 9.2493e-15   6109.50 1 
  5924.16 9.1914e-15   6112.25 1 
  5926.83 9.2234e-15   6115.00 1 
  5929.49 9.4631e-15   6117.75 1 
  5932.16 9.0956e-15   6120.50 1 
  5934.83 1.0046e-14   6123.25 1 
  5937.49 9.4159e-15   6126.00 1 
  5940.16 9.2360e-15   6128.75 1 
  5942.82 9.1637e-15   6131.50 1 
  5945.49 9.5635e-15   6134.25 1 
  5948.15 8.8897e-15   6137.00 1 
  5950.82 8.8580e-15   6139.75 1 
  5953.48 8.3549e-15   6142.50 1 
  5956.15 9.0832e-15   6145.25 1 
  5958.81 9.2447e-15   6148.00 1 
  5961.48 9.1446e-15   6150.75 1 
  5964.14 9.1269e-15   6153.50 1 
  5966.81 9.2192e-15   6156.25 1 
  5969.48 9.1613e-15   6159.00 1 
  5972.14 9.6280e-15   6161.75 1 
  5974.81 9.0889e-15   6164.50 1 
  5977.47 9.3251e-15   6167.25 1 
  5980.14 9.3553e-15   6170.00 1 
  5982.80 9.3355e-15   6172.75 1 
  5985.47 9.1925e-15   6175.50 1 
  5988.13 8.9325e-15   6178.25 1 
  5990.80 8.8075e-15   6181.00 1 
  5993.46 8.9632e-15   6183.75 1 
  5996.13 8.6471e-15   6186.50 1 
  5998.79 8.8330e-15   6189.25 1 
  6001.46 9.3603e-15   6192.00 1 
  6004.13 8.8646e-15   6194.75 1 
  6006.79 8.7490e-15   6197.50 1 
  6009.46 8.7900e-15   6200.25 1 
  6012.12 8.6461e-15   6203.00 1 
  6014.79 8.8282e-15   6205.75 1 
  6017.45 8.6746e-15   6208.50 1 
  6020.12 8.4279e-15   6211.25 1 
  6022.78 8.4866e-15   6214.00 1 
  6025.45 8.5711e-15   6216.75 1 
  6028.11 9.1883e-15   6219.50 1 
  6030.78 9.6124e-15   6222.25 1 
  6033.44 9.1913e-15   6225.00 1 
  6036.11 9.0414e-15   6227.75 1 
  6038.77 9.1139e-15   6230.50 1 
  6041.44 9.3473e-15   6233.25 1 
  6044.11 9.4246e-15   6236.00 1 
  6046.77 9.2072e-15   6238.75 1 
  6049.44 8.8549e-15   6241.50 1 
  6052.10 8.9721e-15   6244.25 1 
  6054.77 8.7803e-15   6247.00 1 
  6057.43 8.8347e-15   6249.75 1 
  6060.10 8.9421e-15   6252.50 1 
  6062.76 8.9128e-15   6255.25 1 
  6065.43 8.9031e-15   6258.00 1 
  6068.09 8.7935e-15   6260.75 1 
  6070.76 8.7459e-15   6263.50 1 
  6073.42 9.2459e-15   6266.25 1 
  6076.09 9.3053e-15   6269.00 1 
  6078.76 9.5193e-15   6271.75 1 
  6081.42 8.6907e-15   6274.50 1 
  6084.09 8.9340e-15   6277.25 1 
  6086.75 9.5897e-15   6280.00 1 
  6089.42 9.1072e-15   6282.75 1 
  6092.08 8.7186e-15   6285.50 1 
  6094.75 9.1202e-15   6288.25 1 
  6097.41 8.7026e-15   6291.00 1 
  6100.08 9.2410e-15   6293.75 1 
  6102.74 9.4873e-15   6296.50 1 
  6105.41 8.5359e-15   6299.25 1 
  6108.07 8.6604e-15   6302.00 1 
  6110.74 9.0763e-15   6304.75 1 
  6113.41 9.1041e-15   6307.50 1 
  6116.07 8.3826e-15   6310.25 1 
  6118.74 9.4495e-15   6313.00 1 
  6121.40 9.0099e-15   6315.75 1 
  6124.07 8.5744e-15   6318.50 1 
  6126.73 8.4850e-15   6321.25 1 
  6129.40 8.8096e-15   6324.00 1 
  6132.06 8.3975e-15   6326.75 1 
  6134.73 8.3034e-15   6329.50 1 
  6137.39 8.5138e-15   6332.25 1 
  6140.06 8.4741e-15   6335.00 1 
  6142.72 8.9761e-15   6337.75 1 
  6145.39 9.1898e-15   6340.50 1 
  6148.06 8.7746e-15   6343.25 1 
  6150.72 9.0593e-15   6346.00 1 
  6153.39 8.9699e-15   6348.75 1 
  6156.05 9.1042e-15   6351.50 1 
  6158.72 8.8034e-15   6354.25 1 
  6161.38 8.7159e-15   6357.00 1 
  6164.05 7.9433e-15   6359.75 1 
  6166.71 8.5646e-15   6362.50 1 
  6169.38 8.2375e-15   6365.25 1 
  6172.04 8.7109e-15   6368.00 1 
  6174.71 8.7663e-15   6370.75 1 
  6177.37 8.5234e-15   6373.50 1 
  6180.04 8.9091e-15   6376.25 1 
  6182.71 9.1647e-15   6379.00 1 
  6185.37 8.7616e-15   6381.75 1 
  6188.04 8.6439e-15   6384.50 1 
  6190.70 8.6818e-15   6387.25 1 
  6193.37 8.5067e-15   6390.00 1 
  6196.03 8.4534e-15   6392.75 1 
  6198.70 8.9632e-15   6395.50 1 
  6201.36 8.9178e-15   6398.25 1 
  6204.03 8.7125e-15   6401.00 1 
  6206.69 8.7367e-15   6403.75 1 
  6209.36 8.5541e-15   6406.50 1 
  6212.02 8.6302e-15   6409.25 1 
  6214.69 8.5347e-15   6412.00 1 
  6217.36 8.8703e-15   6414.75 1 
  6220.02 8.1544e-15   6417.50 1 
  6222.69 8.7803e-15   6420.25 1 
  6225.35 8.2035e-15   6423.00 1 
  6228.02 8.6389e-15   6425.75 1 
  6230.68 8.4832e-15   6428.50 1 
  6233.35 8.4406e-15   6431.25 1 
  6236.01 8.5534e-15   6434.00 1 
  6238.68 8.8730e-15   6436.75 1 
  6241.34 8.5042e-15   6439.50 1 
  6244.01 8.8209e-15   6442.25 1 
  6246.67 8.6003e-15   6445.00 1 
  6249.34 8.3824e-15   6447.75 1 
  6252.01 8.2010e-15   6450.50 1 
  6254.67 8.2840e-15   6453.25 1 
  6257.34 8.6904e-15   6456.00 1 
  6260.00 8.4871e-15   6458.75 1 
  6262.67 8.4415e-15   6461.50 1 
  6265.33 7.8708e-15   6464.25 1 
  6268.00 8.1650e-15   6467.00 1 
  6270.66 8.4934e-15   6469.75 1 
  6273.33 8.4549e-15   6472.50 1 
  6275.99 8.4247e-15   6475.25 1 
  6278.66 8.6373e-15   6478.00 1 
  6281.32 8.2561e-15   6480.75 1 
  6283.99 8.7973e-15   6483.50 1 
  6286.65 8.3716e-15   6486.25 1 
  6289.32 7.9983e-15   6489.00 1 
  6291.99 8.4452e-15   6491.75 1 
  6294.65 8.8962e-15   6494.50 1 
  6297.32 9.7669e-15   6497.25 1 
  6299.98 1.0377e-14   6500.00 1 
  6302.65 9.8638e-15   6502.75 1 
  6305.31 9.0155e-15   6505.50 1 
  6307.98 8.3762e-15   6508.25 1 
  6310.64 8.2412e-15   6511.00 1 
  6313.31 8.5411e-15   6513.75 1 
  6315.97 7.8703e-15   6516.50 1 
  6318.64 8.4659e-15   6519.25 1 
  6321.30 8.3075e-15   6522.00 1 
  6323.97 8.3068e-15   6524.75 1 
  6326.64 8.7859e-15   6527.50 1 
  6329.30 8.4417e-15   6530.25 1 
  6331.97 8.8068e-15   6533.00 1 
  6334.63 8.7538e-15   6535.75 1 
  6337.30 7.8786e-15   6538.50 1 
  6339.96 7.6820e-15   6541.25 1 
  6342.63 8.2502e-15   6544.00 1 
  6345.29 8.6628e-15   6546.75 1 
  6347.96 8.8265e-15   6549.50 1 
  6350.62 9.0439e-15   6552.25 1 
  6353.29 8.1183e-15   6555.00 1 
  6355.95 8.4552e-15   6557.75 1 
  6358.62 8.2762e-15   6560.50 1 
  6361.29 8.8635e-15   6563.25 1 
  6363.95 8.4558e-15   6566.00 1 
  6366.62 8.7302e-15   6568.75 1 
  6369.28 8.3544e-15   6571.50 1 
  6371.95 8.1360e-15   6574.25 1 
  6374.61 8.1810e-15   6577.00 1 
  6377.28 8.3104e-15   6579.75 1 
  6379.94 8.0862e-15   6582.50 1 
  6382.61 8.2504e-15   6585.25 1 
  6385.27 8.5302e-15   6588.00 1 
  6387.94 8.6980e-15   6590.75 1 
  6390.60 8.6633e-15   6593.50 1 
  6393.27 8.5147e-15   6596.25 1 
  6395.94 8.7362e-15   6599.00 1 
  6398.60 8.4482e-15   6601.75 1 
  6401.27 7.7723e-15   6604.50 1 
  6403.93 8.6385e-15   6607.25 1 
  6406.60 8.8361e-15   6610.00 1 
  6409.26 8.1261e-15   6612.75 1 
  6411.93 8.2146e-15   6615.50 1 
  6414.59 8.2155e-15   6618.25 1 
  6417.26 8.0357e-15   6621.00 1 
  6419.92 8.0989e-15   6623.75 1 
  6422.59 8.3577e-15   6626.50 1 
  6425.25 8.4934e-15   6629.25 1 
  6427.92 8.4568e-15   6632.00 1 
  6430.59 8.3823e-15   6634.75 1 
  6433.25 8.3581e-15   6637.50 1 
  6435.92 8.3513e-15   6640.25 1 
  6438.58 8.3094e-15   6643.00 1 
  6441.25 8.1365e-15   6645.75 1 
  6443.91 7.3699e-15   6648.50 1 
  6446.58 8.2759e-15   6651.25 1 
  6449.24 8.2596e-15   6654.00 1 
  6451.91 7.7445e-15   6656.75 1 
  6454.57 8.0737e-15   6659.50 1 
  6457.24 7.9859e-15   6662.25 1 
  6459.90 8.2989e-15   6665.00 1 
  6462.57 7.6811e-15   6667.75 1 
  6465.24 8.2075e-15   6670.50 1 
  6467.90 8.1055e-15   6673.25 1 
  6470.57 8.0705e-15   6676.00 1 
  6473.23 8.2127e-15   6678.75 1 
  6475.90 8.2776e-15   6681.50 1 
  6478.56 8.1193e-15   6684.25 1 
  6481.23 7.9168e-15   6687.00 1 
  6483.89 8.2363e-15   6689.75 1 
  6486.56 8.2090e-15   6692.50 1 
  6489.22 8.1212e-15   6695.25 1 
  6491.89 7.8476e-15   6698.00 1 
  6494.55 8.0994e-15   6700.75 1 
  6497.22 7.6052e-15   6703.50 1 
  6499.89 7.6261e-15   6706.25 1 
  6502.55 7.8671e-15   6709.00 1 
  6505.22 8.1339e-15   6711.75 1 
  6507.88 7.8225e-15   6714.50 1 
  6510.55 7.9607e-15   6717.25 1 
  6513.21 8.1346e-15   6720.00 1 
  6515.88 7.6320e-15   6722.75 1 
  6518.54 7.6575e-15   6725.50 1 
  6521.21 8.3383e-15   6728.25 1 
  6523.87 7.9614e-15   6731.00 1 
  6526.54 8.3136e-15   6733.75 1 
  6529.20 8.2597e-15   6736.50 1 
  6531.87 7.8681e-15   6739.25 1 
  6534.54 8.4179e-15   6742.00 1 
  6537.20 8.6754e-15   6744.75 1 
  6539.87 8.4923e-15   6747.50 1 
  6542.53 9.2764e-15   6750.25 1 
  6545.20 1.0298e-14   6753.00 1 
  6547.86 1.1495e-14   6755.75 1 
  6550.53 1.1501e-14   6758.50 1 
  6553.19 1.1299e-14   6761.25 1 
  6555.86 1.3112e-14   6764.00 1 
  6558.52 2.4760e-14   6766.75 1 
  6561.19 4.0356e-14   6769.50 1 
  6563.85 4.7921e-14   6772.25 1 
  6566.52 3.7904e-14   6775.00 1 
  6569.18 2.0832e-14   6777.75 1 
  6571.85 1.1239e-14   6780.50 1 
  6574.52 8.7798e-15   6783.25 1 
  6577.18 1.0671e-14   6786.00 1 
  6579.85 1.3982e-14   6788.75 1 
  6582.51 1.9209e-14   6791.50 1 
  6585.18 1.8862e-14   6794.25 1 
  6587.84 1.5136e-14   6797.00 1 
  6590.51 1.0962e-14   6799.75 1 
  6593.17 8.7072e-15   6802.50 1 
  6595.84 7.6909e-15   6805.25 1 
  6598.50 7.9518e-15   6808.00 1 
  6601.17 7.8479e-15   6810.75 1 
  6603.83 8.2304e-15   6813.50 1 
  6606.50 7.3556e-15   6816.25 1 
  6609.17 7.4727e-15   6819.00 1 
  6611.83 7.5235e-15   6821.75 1 
  6614.50 7.8997e-15   6824.50 1 
  6617.16 7.8472e-15   6827.25 1 
  6619.83 7.7467e-15   6830.00 1 
  6628.66 8.0661e-15   6839.12 0 
  6643.94 8.0295e-15   6854.88 0 
  6659.26 7.9931e-15   6870.68 0 
  6674.61 7.9020e-15   6886.52 0 
  6690.00 7.9207e-15   6902.40 0 
  6705.42 7.8485e-15   6918.31 0 
  6720.88 7.7591e-15   6934.26 0 
  6736.37 7.8675e-15   6950.24 0 
  6751.90 7.7421e-15   6966.26 0 
  6767.47 7.8322e-15   6982.33 0 
  6783.06 7.8507e-15   6998.42 0 
  6798.70 7.7435e-15   7014.55 0 
  6814.37 7.7439e-15   7030.72 0 
  6830.08 7.7980e-15   7046.93 0 
  6845.83 7.6385e-15   7063.18 0 
  6861.61 7.6214e-15   7079.46 0 
  6877.43 7.5694e-15   7095.78 0 
  6893.28 7.4832e-15   7112.14 0 
  6909.17 7.5181e-15   7128.53 0 
  6925.10 7.5013e-15   7144.96 0 
  6941.06 7.5886e-15   7161.43 0 
  6957.06 7.6416e-15   7177.94 0 
  6973.10 7.6421e-15   7194.49 0 
  6989.18 7.6249e-15   7211.08 0 
  7005.29 7.4518e-15   7227.70 0 
  7021.43 7.4009e-15   7244.36 0 
  7037.62 7.5564e-15   7261.06 0 
  7053.85 7.6796e-15   7277.80 0 
  7070.10 7.3513e-15   7294.57 0 
  7086.41 7.5057e-15   7311.39 0 
  7102.74 7.2680e-15   7328.25 0 
  7119.11 7.1522e-15   7345.14 0 
  7135.53 7.1198e-15   7362.07 0 
  7151.97 7.1861e-15   7379.04 0 
  7168.46 7.2031e-15   7396.05 0 
  7184.98 6.9590e-15   7413.10 0 
  7201.55 6.8639e-15   7430.19 0 
  7218.15 7.1548e-15   7447.32 0 
  7234.79 7.1717e-15   7464.49 0 
  7251.47 6.9767e-15   7481.70 0 
  7268.18 7.0579e-15   7498.94 0 
  7284.94 6.9776e-15   7516.23 0 
  7301.73 7.1405e-15   7533.56 0 
  7318.57 7.0755e-15   7550.92 0 
  7335.44 7.1909e-15   7568.33 0 
  7352.35 7.1748e-15   7585.78 0 
  7369.30 7.1423e-15   7603.26 0 
  7386.28 7.3767e-15   7620.79 0 
  7403.31 7.2592e-15   7638.36 0 
  7420.38 7.1601e-15   7655.97 0 
  7437.48 7.2434e-15   7673.61 0 
  7454.63 7.1445e-15   7691.30 0 
  7471.81 7.1944e-15   7709.04 0 
  7489.04 7.1618e-15   7726.81 0 
  7506.30 7.2119e-15   7744.62 0 
  7523.61 7.2624e-15   7762.47 0 
  7540.95 7.2628e-15   7780.37 0 
  7558.33 7.1967e-15   7798.30 0 
  7575.75 7.1476e-15   7816.28 0 
  7593.22 7.1152e-15   7834.30 0 
  7610.72 7.0342e-15   7852.36 0 
  7628.27 6.9063e-15   7870.46 0 
  7645.85 6.8908e-15   7888.60 0 
  7663.48 6.9072e-15   7906.79 0 
  7681.14 6.7039e-15   7925.01 0 
  7698.85 6.7664e-15   7943.28 0 
  7716.60 6.7202e-15   7961.59 0 
  7734.39 6.6590e-15   7979.95 0 
  7752.22 6.6442e-15   7998.34 0 
  7770.09 6.7215e-15   8016.78 0 
  7788.00 6.5388e-15   8035.26 0 
  7805.95 6.5543e-15   8053.78 0 
  7823.95 6.7694e-15   8072.35 0 
  7841.98 6.5250e-15   8090.96 0 
  7860.06 6.6928e-15   8109.61 0 
  7878.18 6.6779e-15   8128.31 0 
  7896.34 6.7246e-15   8147.04 0 
  7914.54 6.6175e-15   8165.82 0 
  7932.79 6.4822e-15   8184.65 0 
  7951.08 6.3205e-15   8203.52 0 
  7969.41 6.4533e-15   8222.43 0 
  7987.78 6.4686e-15   8241.38 0 
  8006.19 6.3950e-15   8260.38 0 
  8024.65 6.6049e-15   8279.42 0 
  8043.14 6.6359e-15   8298.51 0 
  8061.69 6.6363e-15   8317.64 0 
  8080.27 6.4262e-15   8336.81 0 
  8098.90 6.1800e-15   8356.03 0 
  8117.57 6.5466e-15   8375.29 0 
  8136.28 6.5772e-15   8394.60 0 
  8155.04 6.4428e-15   8413.95 0 
  8173.84 6.2676e-15   8433.35 0 
  8192.68 6.1537e-15   8452.79 0 
  8211.56 6.4293e-15   8472.27 0 
  8230.49 6.2979e-15   8491.80 0 
  8249.47 6.5497e-15   8511.38 0 
  8268.48 6.4306e-15   8531.00 0 
  8287.54 6.3428e-15   8550.67 0 
  8306.65 6.3433e-15   8570.38 0 
  8325.80 6.3146e-15   8590.14 0 
  8344.99 6.2140e-15   8609.94 0 
  8364.23 6.3154e-15   8629.79 0 
  8383.51 6.2149e-15   8649.68 0 
  8402.84 6.3018e-15   8669.62 0 
  8422.21 6.1305e-15   8689.60 0 
  8441.62 6.2882e-15   8709.64 0 
  8461.08 6.2023e-15   8729.71 0 
  8480.59 6.0476e-15   8749.84 0 
  8500.14 6.2175e-15   8770.01 0 
  8519.73 6.1468e-15   8790.23 0 
  8539.37 6.1472e-15   8810.49 0 
  8559.06 5.8440e-15   8830.80 0 
  8578.79 6.1907e-15   8851.16 0 
  8598.56 6.0224e-15   8871.56 0 
  8618.38 5.9814e-15   8892.01 0 
  8638.25 6.1353e-15   8912.51 0 
  8658.17 5.8326e-15   8933.05 0 
  8678.12 5.5322e-15   8953.65 0 
  8698.13 5.6225e-15   8974.29 0 
  8718.18 6.0389e-15   8994.98 0 
  8738.28 5.9840e-15   9015.71 0 
  8758.43 5.4830e-15   9036.50 0 
  8778.61 5.9849e-15   9057.33 0 
  8798.85 6.0129e-15   9078.20 0 
  8819.14 5.8765e-15   9099.13 0 
  8839.47 6.0277e-15   9120.11 0 
  8859.84 5.8235e-15   9141.13 0 
  8880.26 5.5490e-15   9162.20 0 
  8900.74 5.7709e-15   9183.33 0 
  8921.25 5.7980e-15   9204.50 0 
  8941.82 5.8252e-15   9225.71 0 
  8962.44 5.6799e-15   9246.98 0 
  8983.09 5.5638e-15   9268.30 0 
  9003.80 5.6808e-15   9289.66 0 
  9024.56 4.8133e-15   9311.08 0 
  9045.36 5.9768e-15   9332.54 0 
  9066.21 6.1448e-15   9354.06 0 
  9087.11 5.8015e-15   9375.62 0 
  9108.06 5.6829e-15   9397.23 0 
  9129.06 5.4151e-15   9418.90 0 
  9150.10 5.7628e-15   9440.61 0 
  9171.20 5.7899e-15   9462.37 0 
  9192.34 5.7109e-15   9484.18 0 
  9213.53 5.7642e-15   9506.05 0 
  9234.77 5.1141e-15   9527.96 0 
  9256.06 5.4551e-15   9549.93 0 
  9277.39 5.9407e-15   9571.94 0 
  9298.78 5.5830e-15   9594.01 0 
  9320.22 5.6873e-15   9616.12 0 
  9341.70 5.6616e-15   9638.29 0 
  9363.23 5.6101e-15   9660.51 0 
  9384.82 5.6364e-15   9682.78 0 
  9406.45 5.5467e-15   9705.10 0 
  9428.14 5.6243e-15   9727.47 0 
  9449.87 5.5732e-15   9749.90 0 
  9471.66 5.6123e-15   9772.37 0 
  9493.49 5.5869e-15   9794.90 0 
  9515.38 5.4854e-15   9817.48 0 
  9537.31 5.3981e-15   9840.11 0 
  9559.30 5.0731e-15   9862.79 0 
  9581.33 5.4993e-15   9885.53 0 
  9603.42 5.4619e-15   9908.32 0 
  9625.56 5.4624e-15   9931.16 0 
  9647.75 5.4252e-15   9954.05 0 
  9669.99 5.4132e-15   9977.00 0 
  9692.28 5.4386e-15  10000.00 0 
  9714.62 5.3891e-15  10023.05 0 
  9737.01 5.3402e-15  10046.15 0 
  9759.46 5.3161e-15  10069.31 0 
  9781.97 5.2678e-15  10092.53 0 
  9804.51 5.3169e-15  10115.80 0 
  9827.11 5.2808e-15  10139.12 0 
  9849.77 5.2690e-15  10162.49 0 
  9872.47 5.2332e-15  10185.91 0 
  9895.23 5.2216e-15  10209.39 0 
  9918.05 5.1980e-15  10232.94 0 
  9940.91 5.1984e-15  10256.52 0 
  9963.82 5.1750e-15  10280.17 0 
  9986.79 5.1398e-15  10303.86 0 
 10032.88 5.0236e-15  10351.42 0 
 10079.20 4.9101e-15  10399.21 0 
 10125.72 5.0485e-15  10447.20 0 
 10172.46 5.0031e-15  10495.42 0 
 10219.41 4.9809e-15  10543.86 0 
 10266.59 4.9703e-15  10592.54 0 
 10290.25 4.9365e-15  10616.96 0 
 10505.72 4.7375e-15  10839.27 0 
 10701.04 4.5242e-15  11040.79 0 
 10899.99 4.2515e-15  11246.05 0 
 11102.63 4.1452e-15  11455.13 0 
 11309.04 4.0045e-15  11668.09 0 
 11492.80 3.9223e-15  11857.68 0 
 11706.46 3.7892e-15  12078.13 0 
 11896.69 3.6437e-15  12274.40 0 
 12090.00 3.5444e-15  12473.84 0 
 12286.44 3.4558e-15  12676.52 0 
 12486.08 3.3461e-15  12882.50 0 
 12688.96 3.2475e-15  13091.82 0 
 12895.14 3.1590e-15  13304.55 0 
 13104.67 3.0871e-15  13520.73 0 
 13286.97 2.9891e-15  13708.82 0 
 13502.87 2.9211e-15  13931.57 0 
 13690.71 2.8546e-15  14125.38 0 
 13913.17 2.7577e-15  14354.90 0 
 14106.72 2.6579e-15  14554.59 0 
 14302.97 2.6094e-15  14757.07 0 
 14501.94 2.5915e-15  14962.36 0 
 14703.68 2.5150e-15  15170.51 0 
 14908.22 2.5150e-15  15381.54 0 
 15115.61 2.4977e-15  15595.52 0 
 15290.65 2.5035e-15  15776.11 0 
 15503.36 2.4805e-15  15995.58 0 
 15682.89 2.4241e-15  16180.80 0 
 15901.06 2.3418e-15  16405.90 0 
 16085.17 2.3472e-15  16595.86 0 
 16308.94 2.3364e-15  16826.73 0 
 16497.79 2.2832e-15  17021.58 0 
 16688.83 2.2623e-15  17218.69 0 
 16882.09 2.2057e-15  17418.08 0 
 17116.94 2.1654e-15  17660.39 0 
 17315.13 2.0727e-15  17864.87 0 
 17515.64 2.0256e-15  18071.74 0 
 17718.46 1.9568e-15  18281.01 0 
 17882.40 1.8904e-15  18450.14 0 
 18089.47 1.8011e-15  18663.79 0 
 18298.94 1.7642e-15  18879.91 0 
 18510.84 1.7122e-15  19098.54 0 
 18682.10 1.6389e-15  19275.24 0 
 18898.44 1.6053e-15  19498.44 0 
 19117.28 1.5760e-15  19724.23 0 
 19294.15 1.5225e-15  19906.72 0 
 19517.57 1.4606e-15  20137.24 0 
 19698.18 1.4274e-15  20323.57 0 
 19880.43 1.3885e-15  20511.61 0 
 20110.64 1.3632e-15  20749.13 0 
 20296.73 1.3199e-15  20941.13 0 
 20484.52 1.3018e-15  21134.88 0 
 20721.72 1.2692e-15  21379.62 0 
 20913.47 1.2404e-15  21577.45 0 
 21106.96 1.2177e-15  21777.09 0 
 21302.27 1.1927e-15  21978.60 0 
 21499.39 1.1656e-15  22181.97 0 
 21698.31 1.1260e-15  22387.21 0 
 21899.09 1.1106e-15  22594.36 0 
 22101.70 1.0828e-15  22803.41 0 
 22306.22 1.0550e-15  23014.42 0 
 22512.62 1.0203e-15  23227.38 0 
 22720.91 9.8433e-16  23442.28 0 
 22878.42 8.9050e-16  23604.79 0 
 23090.10 8.7473e-16  23823.19 0 
 23303.76 7.7272e-16  24043.63 0 
 23519.40 7.2621e-16  24266.11 0 
 23682.41 7.2657e-16  24434.31 0 
 23901.55 6.6702e-16  24660.40 0 
 24122.70 6.4104e-16  24888.57 0 
 24289.92 6.2788e-16  25061.10 0 
 24514.66 5.8401e-16  25292.97 0 
 24684.60 5.6919e-16  25468.31 0 
 24769.30 4.0398e-16  25555.70 2 
 24863.12 3.9310e-16  25652.50 2 
 24956.94 4.2133e-16  25749.30 2 
 25050.67 4.5657e-16  25846.00 2 
 25144.49 4.5045e-16  25942.80 2 
 25238.31 4.7172e-16  26039.60 2 
 25332.03 4.9109e-16  26136.30 2 
 25425.86 5.2949e-16  26233.10 2 
 25519.58 5.1369e-16  26329.80 2 
 25613.40 5.0566e-16  26426.60 2 
 25707.22 5.1656e-16  26523.40 2 
 25800.95 5.2393e-16  26620.10 2 
 25894.77 5.5230e-16  26716.90 2 
 25988.59 5.5546e-16  26813.70 2 
 26082.31 5.3928e-16  26910.40 2 
 26176.14 5.1900e-16  27007.20 2 
 26269.86 5.0247e-16  27103.90 2 
 26363.68 4.8325e-16  27200.70 2 
 26457.50 4.7226e-16  27297.50 2 
 26551.22 4.6134e-16  27394.20 2 
 26645.05 4.4144e-16  27491.00 2 
 26738.87 4.1485e-16  27587.80 2 
 26832.59 4.0927e-16  27684.50 2 
 26926.41 4.3569e-16  27781.30 2 
 27020.14 4.4510e-16  27878.00 2 
 27113.96 4.2145e-16  27974.80 2 
 27207.78 3.4098e-16  28071.60 2 
 27301.50 3.0247e-16  28168.30 2 
 27395.33 3.1789e-16  28265.10 2 
 27489.15 3.5950e-16  28361.90 2 
 27582.87 3.9161e-16  28458.60 2 
 27676.69 3.8771e-16  28555.40 2 
 27770.42 3.6322e-16  28652.10 2 
 27864.24 3.7589e-16  28748.90 2 
 27958.06 3.8175e-16  28845.70 2 
 28051.78 3.8278e-16  28942.40 2 
 28145.60 3.6225e-16  29039.20 2 
 28239.43 3.6469e-16  29136.00 2 
 28333.15 3.4115e-16  29232.70 2 
 28426.97 3.5225e-16  29329.50 2 
 28520.70 3.5576e-16  29426.20 2 
 28614.52 3.5622e-16  29523.00 2 
 28708.34 3.9180e-16  29619.80 2 
 28802.06 3.7179e-16  29716.50 2 
 28895.88 3.6204e-16  29813.30 2 
 28989.71 3.6552e-16  29910.10 2 
 29083.43 4.0478e-16  30006.80 2 
 29177.25 4.0498e-16  30103.60 2 
 29270.98 3.7031e-16  30200.30 2 
 29364.80 3.3603e-16  30297.10 2 
 29458.62 3.3001e-16  30393.90 2 
 29552.34 3.2064e-16  30490.60 2 
 29646.16 3.1825e-16  30587.40 2 
 29739.98 3.1201e-16  30684.20 2 
 29833.71 3.1780e-16  30780.90 2 
 29927.53 3.3784e-16  30877.70 2 
 30021.26 3.1065e-16  30974.40 2 
 30115.08 3.1179e-16  31071.20 2 
 30208.90 3.0164e-16  31168.00 2 
 30302.62 3.2326e-16  31264.70 2 
 30396.44 2.9333e-16  31361.50 2 
 30490.26 2.9116e-16  31458.30 2 
 30583.99 3.0549e-16  31555.00 2 
 30677.81 3.0293e-16  31651.80 2 
 30771.53 2.7977e-16  31748.50 2 
 30865.36 2.6152e-16  31845.30 2 
 30959.18 2.6775e-16  31942.10 2 
 31052.90 2.8114e-16  32038.80 2 
 31146.72 3.1110e-16  32135.60 2 
 31240.54 3.3335e-16  32232.40 2 
 31334.27 3.2435e-16  32329.10 2 
 31428.09 3.3329e-16  32425.90 2 
 31521.81 3.2288e-16  32522.60 2 
 31615.64 2.8931e-16  32619.40 2 
 31709.46 2.8329e-16  32716.20 2 
 31803.18 2.8432e-16  32812.90 2 
 31897.00 2.9478e-16  32909.70 2 
 31990.82 2.9314e-16  33006.50 2 
 32084.55 3.0259e-16  33103.20 2 
 32178.37 3.6456e-16  33200.00 2 
 32272.09 4.5437e-16  33296.70 2 
 32365.91 5.0916e-16  33393.50 2 
 32459.74 5.5340e-16  33490.30 2 
 32553.46 5.9733e-16  33587.00 2 
 32647.28 6.2574e-16  33683.80 2 
 32741.10 6.5178e-16  33780.60 2 
 32834.83 5.6421e-16  33877.30 2 
 32928.65 6.3197e-16  33974.10 2 
 33022.37 5.9178e-16  34070.80 2 
 33116.20 5.2672e-16  34167.60 2 
 33210.01 4.6829e-16  34264.40 2 
 33303.74 4.3129e-16  34361.10 2 
 33397.56 4.0601e-16  34457.90 2 
 33491.38 3.8217e-16  34554.70 2 
 33585.11 3.6988e-16  34651.40 2 
 33678.93 3.8554e-16  34748.20 2 
 33772.65 4.0849e-16  34844.90 2 
 33866.47 4.4522e-16  34941.70 2 
 33960.29 4.4796e-16  35038.50 2 
 34054.02 4.2391e-16  35135.20 2 
 34147.84 3.8394e-16  35232.00 2 
 34241.66 3.4135e-16  35328.80 2 
 34335.39 3.1716e-16  35425.50 2 
 34429.20 3.0780e-16  35522.30 2 
 34522.93 3.1619e-16  35619.00 2 
 34616.75 3.0787e-16  35715.80 2 
 34710.58 2.9534e-16  35812.60 2 
 34804.30 2.6769e-16  35909.30 2 
 34898.12 2.4438e-16  36006.10 2 
 34991.94 2.3012e-16  36102.90 2 
 35085.67 2.1629e-16  36199.60 2 
 35179.49 2.0907e-16  36296.40 2 
 35273.21 2.0561e-16  36393.10 2 
 35367.03 2.2361e-16  36489.90 2 
 35460.85 2.5246e-16  36586.70 2 
 35554.58 2.6117e-16  36683.40 2 
 35648.40 2.6995e-16  36780.20 2 
 35742.22 2.6581e-16  36877.00 2 
 35835.94 2.5177e-16  36973.70 2 
 35929.77 2.6108e-16  37070.50 2 
 36023.49 2.5469e-16  37167.20 2 
 36117.31 2.5375e-16  37264.00 2 
 36211.13 2.5177e-16  37360.80 2 
 36304.86 2.6251e-16  37457.50 2 
 36398.68 2.6289e-16  37554.30 2 
 36492.50 2.5570e-16  37651.10 2 
 36586.22 2.3164e-16  37747.80 2 
 36680.05 2.3644e-16  37844.60 2 
 36773.77 2.2662e-16  37941.30 2 
 36867.59 2.3756e-16  38038.10 2 
 36961.41 2.2581e-16  38134.90 2 
 37055.13 2.2580e-16  38231.60 2 
 37148.96 2.3543e-16  38328.40 2 
 37242.78 2.2802e-16  38425.20 2 
 37336.50 2.2784e-16  38521.90 2 
 37430.32 2.2055e-16  38618.70 2 
 37524.05 2.2824e-16  38715.40 2 
 37617.87 2.1238e-16  38812.20 2 
 37711.69 1.9716e-16  38909.00 2 
 37805.42 1.9251e-16  39005.70 2 
 37899.24 1.9018e-16  39102.50 2 
 37993.06 1.9241e-16  39199.30 2 
 38086.78 1.8281e-16  39296.00 2 
 38180.60 1.9040e-16  39392.80 2 
 38274.33 1.9688e-16  39489.50 2 
 38368.15 2.2572e-16  39586.30 2 
 38461.97 2.1460e-16  39683.10 2 
 38555.70 1.9053e-16  39779.80 2 
 38649.51 1.4212e-16  39876.60 2 
 38743.34 1.3707e-16  39973.40 2 
 38837.06 1.4424e-16  40070.10 2 
 38930.88 1.6846e-16  40166.90 2 
 39024.61 1.7631e-16  40263.60 2 
 39118.43 1.5552e-16  40360.40 2 
 39212.25 1.6231e-16  40457.20 2 
 39305.97 1.8896e-16  40553.90 2 
 39399.80 1.9622e-16  40650.70 2 
 39493.62 2.0445e-16  40747.50 2 
 39587.34 1.9872e-16  40844.20 2 
 39681.16 2.2038e-16  40941.00 2 
 39774.89 1.9198e-16  41037.70 2 
 39868.71 1.8707e-16  41134.50 2 
 39962.53 1.7543e-16  41231.30 2 
 40056.25 2.0914e-16  41328.00 2 
 40150.08 2.1932e-16  41424.80 2 
 40243.80 2.1202e-16  41521.50 2 
 40337.62 1.9256e-16  41618.30 2 
 40431.44 2.0678e-16  41715.10 2 
 40525.17 2.0210e-16  41811.80 2 
 40618.99 1.9664e-16  41908.60 2 
 40712.81 1.7563e-16  42005.40 2 
 40806.53 1.8590e-16  42102.10 2 
 40900.36 1.8056e-16  42198.90 2 
 40994.18 1.7932e-16  42295.70 2 
 41087.90 1.6223e-16  42392.40 2 
 41181.72 1.5703e-16  42489.20 2 
 41275.45 1.6401e-16  42585.90 2 
 41369.27 1.7542e-16  42682.70 2 
 41463.09 1.6441e-16  42779.50 2 
 41556.81 1.4480e-16  42876.20 2 
 41650.63 1.4984e-16  42973.00 2 
 41744.46 1.5478e-16  43069.80 2 
 41838.18 1.5906e-16  43166.50 2 
 41932.00 1.5814e-16  43263.30 2 
 42025.73 1.5355e-16  43360.00 2 
 42119.55 1.5098e-16  43456.80 2 
 42213.37 1.4434e-16  43553.60 2 
 42307.09 1.6339e-16  43650.30 2 
 42400.91 1.8831e-16  43747.10 2 
 42494.73 1.9718e-16  43843.90 2 
 42588.46 1.9454e-16  43940.60 2 
 42682.28 1.6825e-16  44037.40 2 
 42776.01 1.3114e-16  44134.10 2 
 42869.82 1.2944e-16  44230.90 2 
 42963.65 1.1261e-16  44327.70 2 
 43057.37 1.2207e-16  44424.40 2 
 43151.19 1.1344e-16  44521.20 2 
 43245.01 1.4217e-16  44618.00 2 
 43338.74 1.4757e-16  44714.70 2 
 43432.56 1.5713e-16  44811.50 2 
 43526.28 1.4581e-16  44908.20 2 
 43620.11 1.3387e-16  45005.00 2 
 43713.93 1.1077e-16  45101.80 2 
 43807.65 9.4298e-17  45198.50 2 
 43901.47 1.0873e-16  45295.30 2 
 43995.29 1.2819e-16  45392.10 2 
 44089.02 1.2176e-16  45488.80 2 
 44182.84 1.4798e-16  45585.60 2 
 44276.56 1.3253e-16  45682.30 2 
 44370.38 1.3526e-16  45779.10 2 
 44464.21 1.3436e-16  45875.90 2 
 44557.93 1.4877e-16  45972.60 2 
 44651.75 1.3217e-16  46069.40 2 
 44745.57 1.1769e-16  46166.20 2 
 44839.30 1.0557e-16  46262.90 2 
 44933.12 1.2268e-16  46359.70 2 
 45026.84 1.0906e-16  46456.40 2 
 45120.67 1.1678e-16  46553.20 2 
 45214.49 1.0250e-16  46650.00 2 
 45308.21 1.1543e-16  46746.70 2 
 45402.03 8.4180e-17  46843.50 2 
 45495.85 1.0435e-16  46940.30 2 
 45589.58 1.2905e-16  47037.00 2 
 45683.39 1.5366e-16  47133.80 2 
 45777.12 1.6043e-16  47230.50 2 
 45870.94 1.6541e-16  47327.30 2 
 45964.77 1.5186e-16  47424.10 2 
 46058.49 1.5983e-16  47520.80 2 
 46152.31 1.3293e-16  47617.60 2 
 46246.13 1.3950e-16  47714.40 2 
 46339.85 1.3986e-16  47811.10 2 
 46433.68 1.5965e-16  47907.90 2 
 46527.40 1.5609e-16  48004.60 2 
 46621.23 1.5801e-16  48101.40 2 
 46715.04 1.5512e-16  48198.20 2 
 46808.77 1.4743e-16  48294.90 2 
 46902.59 1.2837e-16  48391.70 2 
 46996.41 1.0125e-16  48488.50 2 
 47090.13 1.1925e-16  48585.20 2 
 47183.96 1.3833e-16  48682.00 2 
 47277.68 1.7325e-16  48778.70 2 
 47371.50 1.5815e-16  48875.50 2 
 47465.32 1.4097e-16  48972.30 2 
 47559.05 1.2831e-16  49069.00 2 
 47652.87 1.4403e-16  49165.80 2 
 47746.69 1.3327e-16  49262.60 2 
 47840.41 1.2686e-16  49359.30 2 
 47934.24 1.2175e-16  49456.10 2 
 48028.93 1.1874e-16  49553.80 2 
 48509.22 1.1303e-16  50049.34 0 
 48994.31 1.0727e-16  50549.83 0 
 49484.25 1.0144e-16  51055.33 0 
 49979.10 9.5557e-17  51565.88 0 
 50478.89 8.9615e-17  52081.54 0 
 50567.05 8.8567e-17  52172.50 3 
 50860.14 9.1012e-17  52474.90 3 
 51153.24 9.8428e-17  52777.30 3 
 51446.33 1.1149e-16  53079.70 3 
 51739.43 1.1177e-16  53382.10 3 
 52032.62 1.2915e-16  53684.60 3 
 52325.71 1.6820e-16  53987.00 3 
 52618.80 1.6971e-16  54289.40 3 
 52911.90 1.3433e-16  54591.80 3 
 53204.99 1.3384e-16  54894.20 3 
 53498.19 1.4173e-16  55196.70 3 
 53791.28 1.2330e-16  55499.10 3 
 54084.38 1.0972e-16  55801.50 3 
 54377.47 1.1413e-16  56103.90 3 
 54670.56 8.8725e-17  56406.30 3 
 54963.75 1.1322e-16  56708.80 3 
 55256.85 1.0901e-16  57011.20 3 
 55549.94 1.2009e-16  57313.60 3 
 55843.04 1.5446e-16  57616.00 3 
 56136.14 1.6545e-16  57918.40 3 
 56429.33 1.8703e-16  58220.90 3 
 56722.42 1.8849e-16  58523.30 3 
 57015.51 1.9772e-16  58825.70 3 
 57308.61 2.1459e-16  59128.10 3 
 57601.70 2.0198e-16  59430.50 3 
 57894.89 1.9542e-16  59733.00 3 
 58187.99 1.9756e-16  60035.40 3 
 58481.08 1.9220e-16  60337.80 3 
 58774.18 2.0187e-16  60640.20 3 
 59067.27 2.0604e-16  60942.60 3 
 59360.46 2.0049e-16  61245.10 3 
 59653.56 2.2947e-16  61547.50 3 
 59946.65 2.7857e-16  61849.90 3 
 60239.75 3.1903e-16  62152.30 3 
 60532.84 3.2185e-16  62454.70 3 
 60826.04 3.3745e-16  62757.20 3 
 61119.13 4.0337e-16  63059.60 3 
 61412.23 5.5105e-16  63362.00 3 
 61705.32 7.7816e-16  63664.40 3 
 61998.41 1.0292e-15  63966.80 3 
 62291.60 1.0331e-15  64269.30 3 
 62584.70 9.1239e-16  64571.70 3 
 62877.79 7.3192e-16  64874.10 3 
 63170.89 6.0267e-16  65176.50 3 
 63463.98 5.1702e-16  65478.90 3 
 63757.17 4.4418e-16  65781.40 3 
 64050.27 4.0162e-16  66083.80 3 
 64343.36 3.5827e-16  66386.20 3 
 64636.46 3.3620e-16  66688.60 3 
 64929.55 3.0462e-16  66991.00 3 
 65222.74 3.1115e-16  67293.50 3 
 65515.84 2.9217e-16  67595.90 3 
 65808.94 2.8814e-16  67898.30 3 
 66102.02 3.0848e-16  68200.70 3 
 66395.12 3.0514e-16  68503.10 3 
 66688.31 2.9163e-16  68805.60 3 
 66981.41 2.9113e-16  69108.00 3 
 67274.50 2.9578e-16  69410.40 3 
 67567.60 2.9220e-16  69712.80 3 
 67860.69 2.8113e-16  70015.20 3 
 68153.89 2.9129e-16  70317.70 3 
 68446.98 2.9799e-16  70620.10 3 
 68740.07 3.0637e-16  70922.50 3 
 69033.16 3.2565e-16  71224.90 3 
 69326.26 3.4099e-16  71527.30 3 
 69619.45 3.8733e-16  71829.80 3 
 69912.55 4.1297e-16  72132.20 3 
 70205.64 3.9125e-16  72434.60 3 
 70498.74 3.8985e-16  72737.00 3 
 70791.83 3.8864e-16  73039.40 3 
 71085.02 3.9563e-16  73341.90 3 
 71378.11 3.9460e-16  73644.30 3 
 71671.21 3.9457e-16  73946.70 3 
 71964.31 4.1347e-16  74249.10 3 
 72257.40 4.3343e-16  74551.50 3 
 72550.59 4.5457e-16  74854.00 3 
 72843.68 4.6940e-16  75156.40 3 
 73136.78 5.0825e-16  75458.80 3 
 73429.87 5.2559e-16  75761.20 3 
 74016.06 6.0634e-16  76366.00 3 
 74602.35 7.0549e-16  76970.90 3 
 75188.53 8.2452e-16  77575.70 3 
 75774.73 9.4259e-16  78180.50 3 
 76361.01 1.0031e-15  78785.40 3 
 76947.21 9.5689e-16  79390.20 3 
 77533.49 9.1154e-16  79995.10 3 
 78119.68 8.8049e-16  80599.90 3 
 78705.87 8.1267e-16  81204.70 3 
 79292.15 7.0783e-16  81809.59 3 
 79878.34 6.0842e-16  82414.40 3 
 80464.53 5.3274e-16  83019.20 3 
 81050.81 4.6948e-16  83624.09 3 
 81637.01 4.3815e-16  84228.90 3 
 82223.19 4.2648e-16  84833.70 3 
 82809.48 4.3084e-16  85438.60 3 
 83395.67 4.2374e-16  86043.40 3 
 83981.96 4.2417e-16  86648.30 3 
 84568.15 4.4359e-16  87253.10 3 
 85154.34 4.7756e-16  87857.91 3 
 85740.63 4.9962e-16  88462.80 3 
 86326.81 4.8348e-16  89067.60 3 
 86913.01 4.3507e-16  89672.41 3 
 87499.28 3.5829e-16  90277.30 3 
 88085.48 2.9699e-16  90882.10 3 
 88671.66 2.5641e-16  91486.90 3 
 89257.95 2.2544e-16  92091.80 3 
 89844.14 2.2071e-16  92696.60 3 
 90430.42 1.9452e-16  93301.50 3 
 91016.61 1.7627e-16  93906.30 3 
 91602.80 1.6969e-16  94511.10 3 
 92189.08 1.6291e-16  95115.99 3 
 92775.27 1.5895e-16  95720.80 3 
 93361.47 1.5592e-16  96325.60 3 
 93947.75 1.4751e-16  96930.50 3 
 94533.94 1.4475e-16  97535.30 3 
 95120.12 1.4411e-16  98140.09 3 
 95706.42 1.5086e-16  98745.00 3 
 96292.61 1.5032e-16  99349.80 3 
 96878.90 1.5130e-16  99954.70 3 
 97465.08 1.3910e-16 100559.50 3 
 98051.27 1.3331e-16 101164.30 3 
 98637.56 1.3031e-16 101769.20 3 
 99223.75 1.2676e-16 102374.00 3 
 99809.94 1.2437e-16 102978.80 3 
100396.22 1.2307e-16 103583.70 3 
100982.41 1.2223e-16 104188.50 3 
101568.60 1.2091e-16 104793.30 3 
102154.88 1.1957e-16 105398.20 3 
102741.07 1.1848e-16 106003.00 3 
103327.37 1.2659e-16 106607.91 3 
103913.54 1.2714e-16 107212.70 3 
104499.74 1.3725e-16 107817.50 3 
105086.03 1.5194e-16 108422.41 3 
105672.22 1.5792e-16 109027.20 3 
106258.40 1.5906e-16 109632.00 3 
106844.69 1.5286e-16 110236.90 3 
107430.88 1.5927e-16 110841.70 3 
108017.07 1.5554e-16 111446.51 3 
108603.35 1.6251e-16 112051.40 3 
109189.54 1.7865e-16 112656.20 3 
109775.83 2.1211e-16 113261.10 3 
110362.01 2.3916e-16 113865.90 3 
110948.21 2.6959e-16 114470.70 3 
111534.49 3.8764e-16 115075.60 3 
112120.68 5.5328e-16 115680.40 3 
112706.87 5.6264e-16 116285.20 3 
113293.15 4.6612e-16 116890.09 3 
113879.34 3.7337e-16 117494.90 3 
114465.53 3.0236e-16 118099.70 3 
115051.81 2.5616e-16 118704.59 3 
115638.01 2.3107e-16 119309.40 3 
116224.30 2.1698e-16 119914.30 3 
116810.49 2.0155e-16 120519.10 3 
117396.67 1.9562e-16 121123.90 3 
117982.96 1.9625e-16 121728.80 3 
118569.15 2.0613e-16 122333.60 3 
119155.34 2.0737e-16 122938.41 3 
119741.62 2.0670e-16 123543.30 3 
120327.81 2.0532e-16 124148.10 3 
120914.01 1.9831e-16 124752.91 3 
121500.28 1.9374e-16 125357.80 3 
122086.48 1.9233e-16 125962.60 3 
122672.76 2.0190e-16 126567.50 3 
123258.95 2.0883e-16 127172.30 3 
123845.14 2.1198e-16 127777.10 3 
124431.43 2.1985e-16 128382.00 3 
125017.61 2.2988e-16 128986.80 3 
125603.81 2.4179e-16 129591.60 3 
126190.10 2.5246e-16 130196.51 3 
126776.28 2.6695e-16 130801.30 3 
127362.46 3.0174e-16 131406.09 3 
127948.75 3.6111e-16 132011.00 3 
128534.94 3.3227e-16 132615.80 3 
129121.13 1.9893e-16 133220.59 3 
129707.42 1.6456e-16 133825.50 3 
130293.61 1.5244e-16 134430.30 3 
130879.90 1.4825e-16 135035.20 3 
131466.08 1.4723e-16 135640.00 3 
132052.27 1.4738e-16 136244.80 3 
132638.56 1.4449e-16 136849.70 3 
133224.75 1.4589e-16 137454.50 3 
133810.93 1.4327e-16 138059.30 3 
134397.23 1.4310e-16 138664.20 3 
134983.41 1.4191e-16 139269.00 3 
135569.60 1.4311e-16 139873.80 3 
136155.89 1.4219e-16 140478.70 3 
136742.08 1.3393e-16 141083.50 3 
137328.37 1.3420e-16 141688.41 3 
137914.55 1.2977e-16 142293.20 3 
138500.74 1.2738e-16 142898.00 3 
139087.03 1.2064e-16 143502.91 3 
139673.22 1.1284e-16 144107.70 3 
140259.40 1.1262e-16 144712.50 3 
141288.33 1.2197e-16 145774.09 3 
142109.08 1.2674e-16 146620.91 3 
142929.82 1.2656e-16 147467.70 3 
143750.56 1.1631e-16 148314.50 3 
144571.21 1.1056e-16 149161.20 3 
145391.95 1.0638e-16 150008.00 3 
146212.69 1.0304e-16 150854.80 3 
147033.34 1.0393e-16 151701.50 3 
147854.08 1.0031e-16 152548.30 3 
148674.82 9.8670e-17 153395.09 3 
149495.47 9.8580e-17 154241.80 3 
150316.20 9.8483e-17 155088.59 3 
151136.96 9.7343e-17 155935.41 3 
151957.61 9.8556e-17 156782.11 3 
152778.35 9.9794e-17 157628.91 3 
153599.09 9.9300e-17 158475.70 3 
154419.72 1.0912e-16 159322.39 3 
155240.47 1.6086e-16 160169.20 3 
156061.21 1.6473e-16 161016.00 3 
156881.95 1.1336e-16 161862.80 3 
157702.60 1.0844e-16 162709.50 3 
158523.35 1.0795e-16 163556.31 3 
159344.08 1.1001e-16 164403.09 3 
160164.74 1.0919e-16 165249.81 3 
160985.47 1.1095e-16 166096.59 3 
161806.21 1.1249e-16 166943.39 3 
162626.87 1.1785e-16 167790.11 3 
163447.59 1.3722e-16 168636.89 3 
164268.35 1.5281e-16 169483.70 3 
165088.98 1.5418e-16 170330.39 3 
165909.73 1.4132e-16 171177.20 3 
166730.47 1.3911e-16 172024.00 3 
167551.11 1.4146e-16 172870.69 3 
168371.86 1.4156e-16 173717.50 3 
169192.60 1.4379e-16 174564.30 3 
170013.34 1.6122e-16 175411.09 3 
170833.99 1.6048e-16 176257.80 3 
171654.74 1.5164e-16 177104.61 3 
172475.47 1.4453e-16 177951.39 3 
173296.13 1.4456e-16 178798.11 3 
174116.87 1.4861e-16 179644.91 3 
174937.61 1.3821e-16 180491.70 3 
175758.26 1.2678e-16 181338.41 3 
176578.98 1.2103e-16 182185.19 3 
177399.74 1.2344e-16 183032.00 3 
178220.38 1.2253e-16 183878.70 3 
179041.12 1.2111e-16 184725.50 3 
179861.86 1.1737e-16 185572.30 3 
180682.50 1.1398e-16 186418.98 3 
181503.25 1.0995e-16 187265.80 3 
182324.00 1.1145e-16 188112.61 3 
183144.74 1.1340e-16 188959.41 3 
183965.38 1.1280e-16 189806.09 3 
184786.13 1.1282e-16 190652.91 3 
185606.86 1.1838e-16 191499.69 3 
186427.52 1.3095e-16 192346.41 3 
187248.26 1.9994e-16 193193.20 3 
188069.00 1.4751e-16 194040.00 3 
188889.65 1.1979e-16 194886.70 3 
189710.40 1.1742e-16 195733.52 3 
190531.12 1.1549e-16 196580.30 3 
191351.77 1.1816e-16 197427.00 3 
192172.51 1.1528e-16 198273.80 3 
192993.25 1.1376e-16 199120.59 3 
193813.91 1.1479e-16 199967.31 3 
194634.64 1.1398e-16 200814.09 3 
195455.39 1.1501e-16 201660.91 3 
196276.13 1.1686e-16 202507.70 3 
197096.77 1.1469e-16 203354.39 3 
197917.52 1.1395e-16 204201.20 3 
199558.91 1.1147e-16 205894.70 3 
201200.39 1.1388e-16 207588.30 3 
202841.79 1.1669e-16 209281.81 3 
204483.16 1.1635e-16 210975.30 3 
206124.64 1.1591e-16 212668.89 3 
207766.03 1.1654e-16 214362.39 3 
209407.52 1.1608e-16 216056.00 3 
211048.91 1.1667e-16 217749.50 3 
212690.30 1.1836e-16 219443.00 3 
214331.79 1.1695e-16 221136.61 3 
215973.18 1.1699e-16 222830.11 3 
217614.55 1.1940e-16 224523.59 3 
219256.03 1.1928e-16 226217.19 3 
220897.43 1.2100e-16 227910.70 3 
222538.91 1.2035e-16 229604.30 3 
224180.30 1.2078e-16 231297.80 3 
225821.68 1.2222e-16 232991.30 3 
227463.18 1.2508e-16 234684.91 3 
229104.57 1.2776e-16 236378.41 3 
230745.95 1.2495e-16 238071.91 3 
232387.42 1.2440e-16 239765.48 3 
234028.82 1.2460e-16 241459.00 3 
235670.30 1.2635e-16 243152.59 3 
237311.69 1.2652e-16 244846.09 3 
238953.07 1.2687e-16 246539.59 3 
240594.57 1.2613e-16 248233.20 3 
242235.95 1.2542e-16 249926.70 3 
243877.34 1.2590e-16 251620.20 3 
245518.84 1.2609e-16 253313.81 3 
247160.22 1.2593e-16 255007.31 3 
248801.69 1.2589e-16 256700.89 3 
250443.07 1.2580e-16 258394.39 3 
252084.46 1.2697e-16 260087.89 3 
253725.95 1.2597e-16 261781.50 3 
255367.34 1.2848e-16 263475.00 3 
257008.73 1.3008e-16 265168.50 3 
258650.21 1.2985e-16 266862.09 3 
260291.60 1.3151e-16 268555.59 3 
261933.07 1.2688e-16 270249.19 3 
263574.46 1.2720e-16 271942.69 3 
265215.88 1.2900e-16 273636.22 3 
266857.36 1.2794e-16 275329.81 3 
268498.72 1.2602e-16 277023.28 3 
270140.10 1.2937e-16 278716.78 3 
271781.61 1.2993e-16 280410.41 3 
273423.00 1.3150e-16 282103.91 3 
275064.48 1.3101e-16 283797.50 3 
276705.87 1.3038e-16 285491.00 3 
278347.25 1.3150e-16 287184.50 3 
279988.73 1.3342e-16 288878.09 3 
281630.12 1.3512e-16 290571.59 3 
283271.51 1.3422e-16 292265.09 3 
284912.99 1.3332e-16 293958.69 3 
286554.37 1.3261e-16 295652.19 3 
288195.85 1.3400e-16 297345.78 3 
289837.27 1.3437e-16 299039.31 3 
291478.66 1.3279e-16 300732.81 3 
293120.14 1.3322e-16 302426.41 3 
294761.52 1.3321e-16 304119.91 3 
296402.91 1.3284e-16 305813.41 3 
298044.39 1.3667e-16 307507.00 3 
299685.78 1.3757e-16 309200.50 3 
301327.25 1.3553e-16 310894.09 3 
302968.64 1.3835e-16 312587.59 3 
304610.03 1.3754e-16 314281.09 3 
306251.51 1.4094e-16 315974.69 3 
307892.93 1.4032e-16 317668.22 3 
309534.31 1.3961e-16 319361.72 3 
311175.79 1.3972e-16 321055.31 3 
312817.15 1.4118e-16 322748.78 3 
314458.66 1.4179e-16 324442.41 3 
316100.05 1.4247e-16 326135.91 3 
317741.43 1.4179e-16 327829.41 3 
319382.91 1.4118e-16 329523.00 3 
321024.30 1.4573e-16 331216.50 3 
322665.69 1.5335e-16 332910.00 3 
324307.20 1.5102e-16 334603.62 3 
325948.58 1.4824e-16 336297.12 3 
327590.03 1.5289e-16 337990.69 3 
329231.42 1.5537e-16 339684.19 3 
330872.84 1.5148e-16 341377.72 3 
332514.29 1.7445e-16 343071.28 3 
334155.67 2.0978e-16 344764.78 3 
335797.06 2.0061e-16 346458.28 3 
337438.57 1.7166e-16 348151.91 3 
339079.93 1.6323e-16 349845.38 3 
